Theta [deg.]  Phi   [deg.]  Abs(Dir.)[dBi   ]   Abs(Theta)[dBi   ]  Phase(Theta)[deg.]  Abs(Phi  )[dBi   ]  Phase(Phi  )[deg.]  Ax.Ratio[dB    ]    
------------------------------------------------------------------------------------------------------------------------------------------------------
   0.000           0.000           -4.778e-01          -2.246e+01             247.155          -5.053e-01             288.536           2.559e+01     
   0.000           1.000           -4.778e-01          -2.108e+01             254.235          -5.158e-01             288.589           2.559e+01     
   0.000           2.000           -4.778e-01          -1.980e+01             259.441          -5.288e-01             288.642           2.559e+01     
   0.000           3.000           -4.778e-01          -1.864e+01             263.371          -5.445e-01             288.695           2.559e+01     
   0.000           4.000           -4.778e-01          -1.760e+01             266.418          -5.629e-01             288.748           2.559e+01     
   0.000           5.000           -4.778e-01          -1.665e+01             268.840          -5.840e-01             288.802           2.559e+01     
   0.000           6.000           -4.778e-01          -1.578e+01             270.804          -6.078e-01             288.856           2.559e+01     
   0.000           7.000           -4.778e-01          -1.499e+01             272.427          -6.342e-01             288.910           2.559e+01     
   0.000           8.000           -4.778e-01          -1.426e+01             273.789          -6.635e-01             288.965           2.559e+01     
   0.000           9.000           -4.778e-01          -1.359e+01             274.948          -6.954e-01             289.020           2.559e+01     
   0.000          10.000           -4.778e-01          -1.296e+01             275.946          -7.301e-01             289.075           2.559e+01     
   0.000          11.000           -4.778e-01          -1.238e+01             276.814          -7.676e-01             289.131           2.559e+01     
   0.000          12.000           -4.778e-01          -1.183e+01             277.577          -8.080e-01             289.187           2.559e+01     
   0.000          13.000           -4.778e-01          -1.132e+01             278.252          -8.511e-01             289.244           2.559e+01     
   0.000          14.000           -4.778e-01          -1.084e+01             278.854          -8.971e-01             289.301           2.559e+01     
   0.000          15.000           -4.778e-01          -1.038e+01             279.394          -9.461e-01             289.359           2.559e+01     
   0.000          16.000           -4.778e-01          -9.952e+00             279.882          -9.979e-01             289.418           2.559e+01     
   0.000          17.000           -4.778e-01          -9.544e+00             280.325          -1.053e+00             289.478           2.559e+01     
   0.000          18.000           -4.778e-01          -9.156e+00             280.730          -1.111e+00             289.538           2.559e+01     
   0.000          19.000           -4.778e-01          -8.787e+00             281.100          -1.171e+00             289.599           2.559e+01     
   0.000          20.000           -4.778e-01          -8.435e+00             281.441          -1.235e+00             289.661           2.559e+01     
   0.000          21.000           -4.778e-01          -8.099e+00             281.756          -1.302e+00             289.724           2.559e+01     
   0.000          22.000           -4.778e-01          -7.778e+00             282.048          -1.373e+00             289.788           2.559e+01     
   0.000          23.000           -4.778e-01          -7.470e+00             282.320          -1.446e+00             289.853           2.559e+01     
   0.000          24.000           -4.778e-01          -7.176e+00             282.574          -1.523e+00             289.919           2.559e+01     
   0.000          25.000           -4.778e-01          -6.894e+00             282.811          -1.603e+00             289.986           2.559e+01     
   0.000          26.000           -4.778e-01          -6.623e+00             283.033          -1.687e+00             290.054           2.559e+01     
   0.000          27.000           -4.778e-01          -6.362e+00             283.243          -1.774e+00             290.124           2.559e+01     
   0.000          28.000           -4.778e-01          -6.112e+00             283.440          -1.864e+00             290.196           2.559e+01     
   0.000          29.000           -4.778e-01          -5.871e+00             283.627          -1.958e+00             290.269           2.559e+01     
   0.000          30.000           -4.778e-01          -5.639e+00             283.804          -2.056e+00             290.343           2.559e+01     
   0.000          31.000           -4.778e-01          -5.416e+00             283.971          -2.158e+00             290.420           2.559e+01     
   0.000          32.000           -4.778e-01          -5.201e+00             284.131          -2.263e+00             290.498           2.559e+01     
   0.000          33.000           -4.778e-01          -4.993e+00             284.283          -2.373e+00             290.578           2.559e+01     
   0.000          34.000           -4.778e-01          -4.793e+00             284.427          -2.486e+00             290.660           2.559e+01     
   0.000          35.000           -4.778e-01          -4.600e+00             284.566          -2.604e+00             290.744           2.559e+01     
   0.000          36.000           -4.778e-01          -4.414e+00             284.698          -2.726e+00             290.831           2.559e+01     
   0.000          37.000           -4.778e-01          -4.234e+00             284.825          -2.852e+00             290.920           2.559e+01     
   0.000          38.000           -4.778e-01          -4.060e+00             284.948          -2.983e+00             291.012           2.559e+01     
   0.000          39.000           -4.778e-01          -3.892e+00             285.065          -3.118e+00             291.107           2.559e+01     
   0.000          40.000           -4.778e-01          -3.730e+00             285.178          -3.259e+00             291.205           2.559e+01     
   0.000          41.000           -4.778e-01          -3.574e+00             285.287          -3.404e+00             291.306           2.559e+01     
   0.000          42.000           -4.778e-01          -3.423e+00             285.392          -3.554e+00             291.411           2.559e+01     
   0.000          43.000           -4.778e-01          -3.277e+00             285.493          -3.710e+00             291.519           2.559e+01     
   0.000          44.000           -4.778e-01          -3.136e+00             285.592          -3.871e+00             291.631           2.559e+01     
   0.000          45.000           -4.778e-01          -3.000e+00             285.687          -4.038e+00             291.748           2.559e+01     
   0.000          46.000           -4.778e-01          -2.868e+00             285.779          -4.211e+00             291.869           2.559e+01     
   0.000          47.000           -4.778e-01          -2.741e+00             285.869          -4.390e+00             291.996           2.559e+01     
   0.000          48.000           -4.778e-01          -2.619e+00             285.956          -4.576e+00             292.128           2.559e+01     
   0.000          49.000           -4.778e-01          -2.501e+00             286.040          -4.768e+00             292.265           2.559e+01     
   0.000          50.000           -4.778e-01          -2.387e+00             286.123          -4.967e+00             292.409           2.559e+01     
   0.000          51.000           -4.778e-01          -2.277e+00             286.203          -5.174e+00             292.560           2.559e+01     
   0.000          52.000           -4.778e-01          -2.171e+00             286.281          -5.388e+00             292.719           2.559e+01     
   0.000          53.000           -4.778e-01          -2.069e+00             286.358          -5.610e+00             292.885           2.559e+01     
   0.000          54.000           -4.778e-01          -1.970e+00             286.433          -5.841e+00             293.061           2.559e+01     
   0.000          55.000           -4.778e-01          -1.876e+00             286.506          -6.081e+00             293.246           2.559e+01     
   0.000          56.000           -4.778e-01          -1.785e+00             286.577          -6.330e+00             293.442           2.559e+01     
   0.000          57.000           -4.778e-01          -1.697e+00             286.647          -6.589e+00             293.650           2.559e+01     
   0.000          58.000           -4.778e-01          -1.613e+00             286.716          -6.858e+00             293.871           2.559e+01     
   0.000          59.000           -4.778e-01          -1.533e+00             286.784          -7.139e+00             294.106           2.559e+01     
   0.000          60.000           -4.778e-01          -1.456e+00             286.850          -7.432e+00             294.357           2.559e+01     
   0.000          61.000           -4.778e-01          -1.382e+00             286.915          -7.738e+00             294.627           2.559e+01     
   0.000          62.000           -4.778e-01          -1.311e+00             286.979          -8.057e+00             294.916           2.559e+01     
   0.000          63.000           -4.778e-01          -1.244e+00             287.042          -8.391e+00             295.228           2.559e+01     
   0.000          64.000           -4.778e-01          -1.179e+00             287.104          -8.741e+00             295.566           2.559e+01     
   0.000          65.000           -4.778e-01          -1.118e+00             287.165          -9.108e+00             295.932           2.559e+01     
   0.000          66.000           -4.778e-01          -1.060e+00             287.226          -9.493e+00             296.332           2.559e+01     
   0.000          67.000           -4.778e-01          -1.005e+00             287.285          -9.899e+00             296.770           2.559e+01     
   0.000          68.000           -4.778e-01          -9.525e-01             287.344          -1.033e+01             297.251           2.559e+01     
   0.000          69.000           -4.778e-01          -9.032e-01             287.402          -1.078e+01             297.785           2.559e+01     
   0.000          70.000           -4.778e-01          -8.568e-01             287.460          -1.126e+01             298.378           2.559e+01     
   0.000          71.000           -4.778e-01          -8.133e-01             287.517          -1.176e+01             299.043           2.559e+01     
   0.000          72.000           -4.778e-01          -7.726e-01             287.573          -1.231e+01             299.794           2.559e+01     
   0.000          73.000           -4.778e-01          -7.348e-01             287.629          -1.288e+01             300.647           2.559e+01     
   0.000          74.000           -4.778e-01          -6.997e-01             287.684          -1.350e+01             301.627           2.559e+01     
   0.000          75.000           -4.778e-01          -6.674e-01             287.739          -1.417e+01             302.764           2.559e+01     
   0.000          76.000           -4.778e-01          -6.378e-01             287.794          -1.489e+01             304.097           2.559e+01     
   0.000          77.000           -4.778e-01          -6.110e-01             287.848          -1.568e+01             305.683           2.559e+01     
   0.000          78.000           -4.778e-01          -5.869e-01             287.902          -1.653e+01             307.598           2.559e+01     
   0.000          79.000           -4.778e-01          -5.655e-01             287.955          -1.747e+01             309.953           2.559e+01     
   0.000          80.000           -4.778e-01          -5.467e-01             288.009          -1.850e+01             312.909           2.559e+01     
   0.000          81.000           -4.778e-01          -5.307e-01             288.062          -1.965e+01             316.708           2.559e+01     
   0.000          82.000           -4.778e-01          -5.173e-01             288.115          -2.091e+01             321.722           2.559e+01     
   0.000          83.000           -4.778e-01          -5.065e-01             288.168          -2.228e+01             328.521           2.559e+01     
   0.000          84.000           -4.778e-01          -4.984e-01             288.221          -2.371e+01             337.931           2.559e+01     
   0.000          85.000           -4.778e-01          -4.930e-01             288.273          -2.504e+01             350.911           2.559e+01     
   0.000          86.000           -4.778e-01          -4.902e-01             288.326          -2.593e+01               7.753           2.559e+01     
   0.000          87.000           -4.778e-01          -4.900e-01             288.378          -2.599e+01              26.597           2.559e+01     
   0.000          88.000           -4.778e-01          -4.925e-01             288.431          -2.519e+01              43.855           2.559e+01     
   0.000          89.000           -4.778e-01          -4.976e-01             288.484          -2.390e+01              57.341           2.559e+01     
   0.000          90.000           -4.778e-01          -5.053e-01             288.536          -2.246e+01              67.155           2.559e+01     
   0.000          91.000           -4.778e-01          -5.158e-01             288.589          -2.108e+01              74.235           2.559e+01     
   0.000          92.000           -4.778e-01          -5.288e-01             288.642          -1.980e+01              79.441           2.559e+01     
   0.000          93.000           -4.778e-01          -5.445e-01             288.695          -1.864e+01              83.371           2.559e+01     
   0.000          94.000           -4.778e-01          -5.629e-01             288.748          -1.760e+01              86.418           2.559e+01     
   0.000          95.000           -4.778e-01          -5.840e-01             288.802          -1.665e+01              88.840           2.559e+01     
   0.000          96.000           -4.778e-01          -6.078e-01             288.856          -1.578e+01              90.804           2.559e+01     
   0.000          97.000           -4.778e-01          -6.342e-01             288.910          -1.499e+01              92.427           2.559e+01     
   0.000          98.000           -4.778e-01          -6.635e-01             288.965          -1.426e+01              93.789           2.559e+01     
   0.000          99.000           -4.778e-01          -6.954e-01             289.020          -1.359e+01              94.948           2.559e+01     
   0.000         100.000           -4.778e-01          -7.301e-01             289.075          -1.296e+01              95.946           2.559e+01     
   0.000         101.000           -4.778e-01          -7.676e-01             289.131          -1.238e+01              96.814           2.559e+01     
   0.000         102.000           -4.778e-01          -8.080e-01             289.187          -1.183e+01              97.577           2.559e+01     
   0.000         103.000           -4.778e-01          -8.511e-01             289.244          -1.132e+01              98.252           2.559e+01     
   0.000         104.000           -4.778e-01          -8.971e-01             289.301          -1.084e+01              98.854           2.559e+01     
   0.000         105.000           -4.778e-01          -9.461e-01             289.359          -1.038e+01              99.394           2.559e+01     
   0.000         106.000           -4.778e-01          -9.979e-01             289.418          -9.952e+00              99.882           2.559e+01     
   0.000         107.000           -4.778e-01          -1.053e+00             289.478          -9.544e+00             100.325           2.559e+01     
   0.000         108.000           -4.778e-01          -1.111e+00             289.538          -9.156e+00             100.730           2.559e+01     
   0.000         109.000           -4.778e-01          -1.171e+00             289.599          -8.787e+00             101.100           2.559e+01     
   0.000         110.000           -4.778e-01          -1.235e+00             289.661          -8.435e+00             101.441           2.559e+01     
   0.000         111.000           -4.778e-01          -1.302e+00             289.724          -8.099e+00             101.756           2.559e+01     
   0.000         112.000           -4.778e-01          -1.373e+00             289.788          -7.778e+00             102.048           2.559e+01     
   0.000         113.000           -4.778e-01          -1.446e+00             289.853          -7.470e+00             102.320           2.559e+01     
   0.000         114.000           -4.778e-01          -1.523e+00             289.919          -7.176e+00             102.574           2.559e+01     
   0.000         115.000           -4.778e-01          -1.603e+00             289.986          -6.894e+00             102.811           2.559e+01     
   0.000         116.000           -4.778e-01          -1.687e+00             290.054          -6.623e+00             103.033           2.559e+01     
   0.000         117.000           -4.778e-01          -1.774e+00             290.124          -6.362e+00             103.243           2.559e+01     
   0.000         118.000           -4.778e-01          -1.864e+00             290.196          -6.112e+00             103.440           2.559e+01     
   0.000         119.000           -4.778e-01          -1.958e+00             290.269          -5.871e+00             103.627           2.559e+01     
   0.000         120.000           -4.778e-01          -2.056e+00             290.343          -5.639e+00             103.804           2.559e+01     
   0.000         121.000           -4.778e-01          -2.158e+00             290.420          -5.416e+00             103.971           2.559e+01     
   0.000         122.000           -4.778e-01          -2.263e+00             290.498          -5.201e+00             104.131           2.559e+01     
   0.000         123.000           -4.778e-01          -2.373e+00             290.578          -4.993e+00             104.283           2.559e+01     
   0.000         124.000           -4.778e-01          -2.486e+00             290.660          -4.793e+00             104.427           2.559e+01     
   0.000         125.000           -4.778e-01          -2.604e+00             290.744          -4.600e+00             104.566           2.559e+01     
   0.000         126.000           -4.778e-01          -2.726e+00             290.831          -4.414e+00             104.698           2.559e+01     
   0.000         127.000           -4.778e-01          -2.852e+00             290.920          -4.234e+00             104.825           2.559e+01     
   0.000         128.000           -4.778e-01          -2.983e+00             291.012          -4.060e+00             104.948           2.559e+01     
   0.000         129.000           -4.778e-01          -3.118e+00             291.107          -3.892e+00             105.065           2.559e+01     
   0.000         130.000           -4.778e-01          -3.259e+00             291.205          -3.730e+00             105.178           2.559e+01     
   0.000         131.000           -4.778e-01          -3.404e+00             291.306          -3.574e+00             105.287           2.559e+01     
   0.000         132.000           -4.778e-01          -3.554e+00             291.411          -3.423e+00             105.392           2.559e+01     
   0.000         133.000           -4.778e-01          -3.710e+00             291.519          -3.277e+00             105.493           2.559e+01     
   0.000         134.000           -4.778e-01          -3.871e+00             291.631          -3.136e+00             105.592           2.559e+01     
   0.000         135.000           -4.778e-01          -4.038e+00             291.748          -3.000e+00             105.687           2.559e+01     
   0.000         136.000           -4.778e-01          -4.211e+00             291.869          -2.868e+00             105.779           2.559e+01     
   0.000         137.000           -4.778e-01          -4.390e+00             291.996          -2.741e+00             105.869           2.559e+01     
   0.000         138.000           -4.778e-01          -4.576e+00             292.128          -2.619e+00             105.956           2.559e+01     
   0.000         139.000           -4.778e-01          -4.768e+00             292.265          -2.501e+00             106.040           2.559e+01     
   0.000         140.000           -4.778e-01          -4.967e+00             292.409          -2.387e+00             106.123           2.559e+01     
   0.000         141.000           -4.778e-01          -5.174e+00             292.560          -2.277e+00             106.203           2.559e+01     
   0.000         142.000           -4.778e-01          -5.388e+00             292.719          -2.171e+00             106.281           2.559e+01     
   0.000         143.000           -4.778e-01          -5.610e+00             292.885          -2.069e+00             106.358           2.559e+01     
   0.000         144.000           -4.778e-01          -5.841e+00             293.061          -1.970e+00             106.433           2.559e+01     
   0.000         145.000           -4.778e-01          -6.081e+00             293.246          -1.876e+00             106.506           2.559e+01     
   0.000         146.000           -4.778e-01          -6.330e+00             293.442          -1.785e+00             106.577           2.559e+01     
   0.000         147.000           -4.778e-01          -6.589e+00             293.650          -1.697e+00             106.647           2.559e+01     
   0.000         148.000           -4.778e-01          -6.858e+00             293.871          -1.613e+00             106.716           2.559e+01     
   0.000         149.000           -4.778e-01          -7.139e+00             294.106          -1.533e+00             106.784           2.559e+01     
   0.000         150.000           -4.778e-01          -7.432e+00             294.357          -1.456e+00             106.850           2.559e+01     
   0.000         151.000           -4.778e-01          -7.738e+00             294.627          -1.382e+00             106.915           2.559e+01     
   0.000         152.000           -4.778e-01          -8.057e+00             294.916          -1.311e+00             106.979           2.559e+01     
   0.000         153.000           -4.778e-01          -8.391e+00             295.228          -1.244e+00             107.042           2.559e+01     
   0.000         154.000           -4.778e-01          -8.741e+00             295.566          -1.179e+00             107.104           2.559e+01     
   0.000         155.000           -4.778e-01          -9.108e+00             295.932          -1.118e+00             107.165           2.559e+01     
   0.000         156.000           -4.778e-01          -9.493e+00             296.332          -1.060e+00             107.226           2.559e+01     
   0.000         157.000           -4.778e-01          -9.899e+00             296.770          -1.005e+00             107.285           2.559e+01     
   0.000         158.000           -4.778e-01          -1.033e+01             297.251          -9.525e-01             107.344           2.559e+01     
   0.000         159.000           -4.778e-01          -1.078e+01             297.785          -9.032e-01             107.402           2.559e+01     
   0.000         160.000           -4.778e-01          -1.126e+01             298.378          -8.568e-01             107.460           2.559e+01     
   0.000         161.000           -4.778e-01          -1.176e+01             299.043          -8.133e-01             107.517           2.559e+01     
   0.000         162.000           -4.778e-01          -1.231e+01             299.794          -7.726e-01             107.573           2.559e+01     
   0.000         163.000           -4.778e-01          -1.288e+01             300.647          -7.348e-01             107.629           2.559e+01     
   0.000         164.000           -4.778e-01          -1.350e+01             301.627          -6.997e-01             107.684           2.559e+01     
   0.000         165.000           -4.778e-01          -1.417e+01             302.764          -6.674e-01             107.739           2.559e+01     
   0.000         166.000           -4.778e-01          -1.489e+01             304.097          -6.378e-01             107.794           2.559e+01     
   0.000         167.000           -4.778e-01          -1.568e+01             305.683          -6.110e-01             107.848           2.559e+01     
   0.000         168.000           -4.778e-01          -1.653e+01             307.598          -5.869e-01             107.902           2.559e+01     
   0.000         169.000           -4.778e-01          -1.747e+01             309.953          -5.655e-01             107.955           2.559e+01     
   0.000         170.000           -4.778e-01          -1.850e+01             312.909          -5.467e-01             108.009           2.559e+01     
   0.000         171.000           -4.778e-01          -1.965e+01             316.708          -5.307e-01             108.062           2.559e+01     
   0.000         172.000           -4.778e-01          -2.091e+01             321.722          -5.173e-01             108.115           2.559e+01     
   0.000         173.000           -4.778e-01          -2.228e+01             328.521          -5.065e-01             108.168           2.559e+01     
   0.000         174.000           -4.778e-01          -2.371e+01             337.931          -4.984e-01             108.221           2.559e+01     
   0.000         175.000           -4.778e-01          -2.504e+01             350.911          -4.930e-01             108.273           2.559e+01     
   0.000         176.000           -4.778e-01          -2.593e+01               7.753          -4.902e-01             108.326           2.559e+01     
   0.000         177.000           -4.778e-01          -2.599e+01              26.597          -4.900e-01             108.378           2.559e+01     
   0.000         178.000           -4.778e-01          -2.519e+01              43.855          -4.925e-01             108.431           2.559e+01     
   0.000         179.000           -4.778e-01          -2.390e+01              57.341          -4.976e-01             108.484           2.559e+01     
   0.000         180.000           -4.778e-01          -2.246e+01              67.155          -5.053e-01             108.536           2.559e+01     
   0.000         181.000           -4.778e-01          -2.108e+01              74.235          -5.158e-01             108.589           2.559e+01     
   0.000         182.000           -4.778e-01          -1.980e+01              79.441          -5.288e-01             108.642           2.559e+01     
   0.000         183.000           -4.778e-01          -1.864e+01              83.371          -5.445e-01             108.695           2.559e+01     
   0.000         184.000           -4.778e-01          -1.760e+01              86.418          -5.629e-01             108.748           2.559e+01     
   0.000         185.000           -4.778e-01          -1.665e+01              88.840          -5.840e-01             108.802           2.559e+01     
   0.000         186.000           -4.778e-01          -1.578e+01              90.804          -6.078e-01             108.856           2.559e+01     
   0.000         187.000           -4.778e-01          -1.499e+01              92.427          -6.342e-01             108.910           2.559e+01     
   0.000         188.000           -4.778e-01          -1.426e+01              93.789          -6.635e-01             108.965           2.559e+01     
   0.000         189.000           -4.778e-01          -1.359e+01              94.948          -6.954e-01             109.020           2.559e+01     
   0.000         190.000           -4.778e-01          -1.296e+01              95.946          -7.301e-01             109.075           2.559e+01     
   0.000         191.000           -4.778e-01          -1.238e+01              96.814          -7.676e-01             109.131           2.559e+01     
   0.000         192.000           -4.778e-01          -1.183e+01              97.577          -8.080e-01             109.187           2.559e+01     
   0.000         193.000           -4.778e-01          -1.132e+01              98.252          -8.511e-01             109.244           2.559e+01     
   0.000         194.000           -4.778e-01          -1.084e+01              98.854          -8.971e-01             109.301           2.559e+01     
   0.000         195.000           -4.778e-01          -1.038e+01              99.394          -9.461e-01             109.359           2.559e+01     
   0.000         196.000           -4.778e-01          -9.952e+00              99.882          -9.979e-01             109.418           2.559e+01     
   0.000         197.000           -4.778e-01          -9.544e+00             100.325          -1.053e+00             109.478           2.559e+01     
   0.000         198.000           -4.778e-01          -9.156e+00             100.730          -1.111e+00             109.538           2.559e+01     
   0.000         199.000           -4.778e-01          -8.787e+00             101.100          -1.171e+00             109.599           2.559e+01     
   0.000         200.000           -4.778e-01          -8.435e+00             101.441          -1.235e+00             109.661           2.559e+01     
   0.000         201.000           -4.778e-01          -8.099e+00             101.756          -1.302e+00             109.724           2.559e+01     
   0.000         202.000           -4.778e-01          -7.778e+00             102.048          -1.373e+00             109.788           2.559e+01     
   0.000         203.000           -4.778e-01          -7.470e+00             102.320          -1.446e+00             109.853           2.559e+01     
   0.000         204.000           -4.778e-01          -7.176e+00             102.574          -1.523e+00             109.919           2.559e+01     
   0.000         205.000           -4.778e-01          -6.894e+00             102.811          -1.603e+00             109.986           2.559e+01     
   0.000         206.000           -4.778e-01          -6.623e+00             103.033          -1.687e+00             110.054           2.559e+01     
   0.000         207.000           -4.778e-01          -6.362e+00             103.243          -1.774e+00             110.124           2.559e+01     
   0.000         208.000           -4.778e-01          -6.112e+00             103.440          -1.864e+00             110.196           2.559e+01     
   0.000         209.000           -4.778e-01          -5.871e+00             103.627          -1.958e+00             110.269           2.559e+01     
   0.000         210.000           -4.778e-01          -5.639e+00             103.804          -2.056e+00             110.343           2.559e+01     
   0.000         211.000           -4.778e-01          -5.416e+00             103.971          -2.158e+00             110.420           2.559e+01     
   0.000         212.000           -4.778e-01          -5.201e+00             104.131          -2.263e+00             110.498           2.559e+01     
   0.000         213.000           -4.778e-01          -4.993e+00             104.283          -2.373e+00             110.578           2.559e+01     
   0.000         214.000           -4.778e-01          -4.793e+00             104.427          -2.486e+00             110.660           2.559e+01     
   0.000         215.000           -4.778e-01          -4.600e+00             104.566          -2.604e+00             110.744           2.559e+01     
   0.000         216.000           -4.778e-01          -4.414e+00             104.698          -2.726e+00             110.831           2.559e+01     
   0.000         217.000           -4.778e-01          -4.234e+00             104.825          -2.852e+00             110.920           2.559e+01     
   0.000         218.000           -4.778e-01          -4.060e+00             104.948          -2.983e+00             111.012           2.559e+01     
   0.000         219.000           -4.778e-01          -3.892e+00             105.065          -3.118e+00             111.107           2.559e+01     
   0.000         220.000           -4.778e-01          -3.730e+00             105.178          -3.259e+00             111.205           2.559e+01     
   0.000         221.000           -4.778e-01          -3.574e+00             105.287          -3.404e+00             111.306           2.559e+01     
   0.000         222.000           -4.778e-01          -3.423e+00             105.392          -3.554e+00             111.411           2.559e+01     
   0.000         223.000           -4.778e-01          -3.277e+00             105.493          -3.710e+00             111.519           2.559e+01     
   0.000         224.000           -4.778e-01          -3.136e+00             105.592          -3.871e+00             111.631           2.559e+01     
   0.000         225.000           -4.778e-01          -3.000e+00             105.687          -4.038e+00             111.748           2.559e+01     
   0.000         226.000           -4.778e-01          -2.868e+00             105.779          -4.211e+00             111.869           2.559e+01     
   0.000         227.000           -4.778e-01          -2.741e+00             105.869          -4.390e+00             111.996           2.559e+01     
   0.000         228.000           -4.778e-01          -2.619e+00             105.956          -4.576e+00             112.128           2.559e+01     
   0.000         229.000           -4.778e-01          -2.501e+00             106.040          -4.768e+00             112.265           2.559e+01     
   0.000         230.000           -4.778e-01          -2.387e+00             106.123          -4.967e+00             112.409           2.559e+01     
   0.000         231.000           -4.778e-01          -2.277e+00             106.203          -5.174e+00             112.560           2.559e+01     
   0.000         232.000           -4.778e-01          -2.171e+00             106.281          -5.388e+00             112.719           2.559e+01     
   0.000         233.000           -4.778e-01          -2.069e+00             106.358          -5.610e+00             112.885           2.559e+01     
   0.000         234.000           -4.778e-01          -1.970e+00             106.433          -5.841e+00             113.061           2.559e+01     
   0.000         235.000           -4.778e-01          -1.876e+00             106.506          -6.081e+00             113.246           2.559e+01     
   0.000         236.000           -4.778e-01          -1.785e+00             106.577          -6.330e+00             113.442           2.559e+01     
   0.000         237.000           -4.778e-01          -1.697e+00             106.647          -6.589e+00             113.650           2.559e+01     
   0.000         238.000           -4.778e-01          -1.613e+00             106.716          -6.858e+00             113.871           2.559e+01     
   0.000         239.000           -4.778e-01          -1.533e+00             106.784          -7.139e+00             114.106           2.559e+01     
   0.000         240.000           -4.778e-01          -1.456e+00             106.850          -7.432e+00             114.357           2.559e+01     
   0.000         241.000           -4.778e-01          -1.382e+00             106.915          -7.738e+00             114.627           2.559e+01     
   0.000         242.000           -4.778e-01          -1.311e+00             106.979          -8.057e+00             114.916           2.559e+01     
   0.000         243.000           -4.778e-01          -1.244e+00             107.042          -8.391e+00             115.228           2.559e+01     
   0.000         244.000           -4.778e-01          -1.179e+00             107.104          -8.741e+00             115.566           2.559e+01     
   0.000         245.000           -4.778e-01          -1.118e+00             107.165          -9.108e+00             115.932           2.559e+01     
   0.000         246.000           -4.778e-01          -1.060e+00             107.226          -9.493e+00             116.332           2.559e+01     
   0.000         247.000           -4.778e-01          -1.005e+00             107.285          -9.899e+00             116.770           2.559e+01     
   0.000         248.000           -4.778e-01          -9.525e-01             107.344          -1.033e+01             117.251           2.559e+01     
   0.000         249.000           -4.778e-01          -9.032e-01             107.402          -1.078e+01             117.785           2.559e+01     
   0.000         250.000           -4.778e-01          -8.568e-01             107.460          -1.126e+01             118.378           2.559e+01     
   0.000         251.000           -4.778e-01          -8.133e-01             107.517          -1.176e+01             119.043           2.559e+01     
   0.000         252.000           -4.778e-01          -7.726e-01             107.573          -1.231e+01             119.794           2.559e+01     
   0.000         253.000           -4.778e-01          -7.348e-01             107.629          -1.288e+01             120.647           2.559e+01     
   0.000         254.000           -4.778e-01          -6.997e-01             107.684          -1.350e+01             121.627           2.559e+01     
   0.000         255.000           -4.778e-01          -6.674e-01             107.739          -1.417e+01             122.764           2.559e+01     
   0.000         256.000           -4.778e-01          -6.378e-01             107.794          -1.489e+01             124.097           2.559e+01     
   0.000         257.000           -4.778e-01          -6.110e-01             107.848          -1.568e+01             125.683           2.559e+01     
   0.000         258.000           -4.778e-01          -5.869e-01             107.902          -1.653e+01             127.598           2.559e+01     
   0.000         259.000           -4.778e-01          -5.655e-01             107.955          -1.747e+01             129.953           2.559e+01     
   0.000         260.000           -4.778e-01          -5.467e-01             108.009          -1.850e+01             132.909           2.559e+01     
   0.000         261.000           -4.778e-01          -5.307e-01             108.062          -1.965e+01             136.708           2.559e+01     
   0.000         262.000           -4.778e-01          -5.173e-01             108.115          -2.091e+01             141.722           2.559e+01     
   0.000         263.000           -4.778e-01          -5.065e-01             108.168          -2.228e+01             148.521           2.559e+01     
   0.000         264.000           -4.778e-01          -4.984e-01             108.221          -2.371e+01             157.931           2.559e+01     
   0.000         265.000           -4.778e-01          -4.930e-01             108.273          -2.504e+01             170.911           2.559e+01     
   0.000         266.000           -4.778e-01          -4.902e-01             108.326          -2.593e+01             187.753           2.559e+01     
   0.000         267.000           -4.778e-01          -4.900e-01             108.378          -2.599e+01             206.597           2.559e+01     
   0.000         268.000           -4.778e-01          -4.925e-01             108.431          -2.519e+01             223.855           2.559e+01     
   0.000         269.000           -4.778e-01          -4.976e-01             108.484          -2.390e+01             237.341           2.559e+01     
   0.000         270.000           -4.778e-01          -5.053e-01             108.536          -2.246e+01             247.155           2.559e+01     
   0.000         271.000           -4.778e-01          -5.158e-01             108.589          -2.108e+01             254.235           2.559e+01     
   0.000         272.000           -4.778e-01          -5.288e-01             108.642          -1.980e+01             259.441           2.559e+01     
   0.000         273.000           -4.778e-01          -5.445e-01             108.695          -1.864e+01             263.371           2.559e+01     
   0.000         274.000           -4.778e-01          -5.629e-01             108.748          -1.760e+01             266.418           2.559e+01     
   0.000         275.000           -4.778e-01          -5.840e-01             108.802          -1.665e+01             268.840           2.559e+01     
   0.000         276.000           -4.778e-01          -6.078e-01             108.856          -1.578e+01             270.804           2.559e+01     
   0.000         277.000           -4.778e-01          -6.342e-01             108.910          -1.499e+01             272.427           2.559e+01     
   0.000         278.000           -4.778e-01          -6.635e-01             108.965          -1.426e+01             273.789           2.559e+01     
   0.000         279.000           -4.778e-01          -6.954e-01             109.020          -1.359e+01             274.948           2.559e+01     
   0.000         280.000           -4.778e-01          -7.301e-01             109.075          -1.296e+01             275.946           2.559e+01     
   0.000         281.000           -4.778e-01          -7.676e-01             109.131          -1.238e+01             276.814           2.559e+01     
   0.000         282.000           -4.778e-01          -8.080e-01             109.187          -1.183e+01             277.577           2.559e+01     
   0.000         283.000           -4.778e-01          -8.511e-01             109.244          -1.132e+01             278.252           2.559e+01     
   0.000         284.000           -4.778e-01          -8.971e-01             109.301          -1.084e+01             278.854           2.559e+01     
   0.000         285.000           -4.778e-01          -9.461e-01             109.359          -1.038e+01             279.394           2.559e+01     
   0.000         286.000           -4.778e-01          -9.979e-01             109.418          -9.952e+00             279.882           2.559e+01     
   0.000         287.000           -4.778e-01          -1.053e+00             109.478          -9.544e+00             280.325           2.559e+01     
   0.000         288.000           -4.778e-01          -1.111e+00             109.538          -9.156e+00             280.730           2.559e+01     
   0.000         289.000           -4.778e-01          -1.171e+00             109.599          -8.787e+00             281.100           2.559e+01     
   0.000         290.000           -4.778e-01          -1.235e+00             109.661          -8.435e+00             281.441           2.559e+01     
   0.000         291.000           -4.778e-01          -1.302e+00             109.724          -8.099e+00             281.756           2.559e+01     
   0.000         292.000           -4.778e-01          -1.373e+00             109.788          -7.778e+00             282.048           2.559e+01     
   0.000         293.000           -4.778e-01          -1.446e+00             109.853          -7.470e+00             282.320           2.559e+01     
   0.000         294.000           -4.778e-01          -1.523e+00             109.919          -7.176e+00             282.574           2.559e+01     
   0.000         295.000           -4.778e-01          -1.603e+00             109.986          -6.894e+00             282.811           2.559e+01     
   0.000         296.000           -4.778e-01          -1.687e+00             110.054          -6.623e+00             283.033           2.559e+01     
   0.000         297.000           -4.778e-01          -1.774e+00             110.124          -6.362e+00             283.243           2.559e+01     
   0.000         298.000           -4.778e-01          -1.864e+00             110.196          -6.112e+00             283.440           2.559e+01     
   0.000         299.000           -4.778e-01          -1.958e+00             110.269          -5.871e+00             283.627           2.559e+01     
   0.000         300.000           -4.778e-01          -2.056e+00             110.343          -5.639e+00             283.804           2.559e+01     
   0.000         301.000           -4.778e-01          -2.158e+00             110.420          -5.416e+00             283.971           2.559e+01     
   0.000         302.000           -4.778e-01          -2.263e+00             110.498          -5.201e+00             284.131           2.559e+01     
   0.000         303.000           -4.778e-01          -2.373e+00             110.578          -4.993e+00             284.283           2.559e+01     
   0.000         304.000           -4.778e-01          -2.486e+00             110.660          -4.793e+00             284.427           2.559e+01     
   0.000         305.000           -4.778e-01          -2.604e+00             110.744          -4.600e+00             284.566           2.559e+01     
   0.000         306.000           -4.778e-01          -2.726e+00             110.831          -4.414e+00             284.698           2.559e+01     
   0.000         307.000           -4.778e-01          -2.852e+00             110.920          -4.234e+00             284.825           2.559e+01     
   0.000         308.000           -4.778e-01          -2.983e+00             111.012          -4.060e+00             284.948           2.559e+01     
   0.000         309.000           -4.778e-01          -3.118e+00             111.107          -3.892e+00             285.065           2.559e+01     
   0.000         310.000           -4.778e-01          -3.259e+00             111.205          -3.730e+00             285.178           2.559e+01     
   0.000         311.000           -4.778e-01          -3.404e+00             111.306          -3.574e+00             285.287           2.559e+01     
   0.000         312.000           -4.778e-01          -3.554e+00             111.411          -3.423e+00             285.392           2.559e+01     
   0.000         313.000           -4.778e-01          -3.710e+00             111.519          -3.277e+00             285.493           2.559e+01     
   0.000         314.000           -4.778e-01          -3.871e+00             111.631          -3.136e+00             285.592           2.559e+01     
   0.000         315.000           -4.778e-01          -4.038e+00             111.748          -3.000e+00             285.687           2.559e+01     
   0.000         316.000           -4.778e-01          -4.211e+00             111.869          -2.868e+00             285.779           2.559e+01     
   0.000         317.000           -4.778e-01          -4.390e+00             111.996          -2.741e+00             285.869           2.559e+01     
   0.000         318.000           -4.778e-01          -4.576e+00             112.128          -2.619e+00             285.956           2.559e+01     
   0.000         319.000           -4.778e-01          -4.768e+00             112.265          -2.501e+00             286.040           2.559e+01     
   0.000         320.000           -4.778e-01          -4.967e+00             112.409          -2.387e+00             286.123           2.559e+01     
   0.000         321.000           -4.778e-01          -5.174e+00             112.560          -2.277e+00             286.203           2.559e+01     
   0.000         322.000           -4.778e-01          -5.388e+00             112.719          -2.171e+00             286.281           2.559e+01     
   0.000         323.000           -4.778e-01          -5.610e+00             112.885          -2.069e+00             286.358           2.559e+01     
   0.000         324.000           -4.778e-01          -5.841e+00             113.061          -1.970e+00             286.433           2.559e+01     
   0.000         325.000           -4.778e-01          -6.081e+00             113.246          -1.876e+00             286.506           2.559e+01     
   0.000         326.000           -4.778e-01          -6.330e+00             113.442          -1.785e+00             286.577           2.559e+01     
   0.000         327.000           -4.778e-01          -6.589e+00             113.650          -1.697e+00             286.647           2.559e+01     
   0.000         328.000           -4.778e-01          -6.858e+00             113.871          -1.613e+00             286.716           2.559e+01     
   0.000         329.000           -4.778e-01          -7.139e+00             114.106          -1.533e+00             286.784           2.559e+01     
   0.000         330.000           -4.778e-01          -7.432e+00             114.357          -1.456e+00             286.850           2.559e+01     
   0.000         331.000           -4.778e-01          -7.738e+00             114.627          -1.382e+00             286.915           2.559e+01     
   0.000         332.000           -4.778e-01          -8.057e+00             114.916          -1.311e+00             286.979           2.559e+01     
   0.000         333.000           -4.778e-01          -8.391e+00             115.228          -1.244e+00             287.042           2.559e+01     
   0.000         334.000           -4.778e-01          -8.741e+00             115.566          -1.179e+00             287.104           2.559e+01     
   0.000         335.000           -4.778e-01          -9.108e+00             115.932          -1.118e+00             287.165           2.559e+01     
   0.000         336.000           -4.778e-01          -9.493e+00             116.332          -1.060e+00             287.226           2.559e+01     
   0.000         337.000           -4.778e-01          -9.899e+00             116.770          -1.005e+00             287.285           2.559e+01     
   0.000         338.000           -4.778e-01          -1.033e+01             117.251          -9.525e-01             287.344           2.559e+01     
   0.000         339.000           -4.778e-01          -1.078e+01             117.785          -9.032e-01             287.402           2.559e+01     
   0.000         340.000           -4.778e-01          -1.126e+01             118.378          -8.568e-01             287.460           2.559e+01     
   0.000         341.000           -4.778e-01          -1.176e+01             119.043          -8.133e-01             287.517           2.559e+01     
   0.000         342.000           -4.778e-01          -1.231e+01             119.794          -7.726e-01             287.573           2.559e+01     
   0.000         343.000           -4.778e-01          -1.288e+01             120.647          -7.348e-01             287.629           2.559e+01     
   0.000         344.000           -4.778e-01          -1.350e+01             121.627          -6.997e-01             287.684           2.559e+01     
   0.000         345.000           -4.778e-01          -1.417e+01             122.764          -6.674e-01             287.739           2.559e+01     
   0.000         346.000           -4.778e-01          -1.489e+01             124.097          -6.378e-01             287.794           2.559e+01     
   0.000         347.000           -4.778e-01          -1.568e+01             125.683          -6.110e-01             287.848           2.559e+01     
   0.000         348.000           -4.778e-01          -1.653e+01             127.598          -5.869e-01             287.902           2.559e+01     
   0.000         349.000           -4.778e-01          -1.747e+01             129.953          -5.655e-01             287.955           2.559e+01     
   0.000         350.000           -4.778e-01          -1.850e+01             132.909          -5.467e-01             288.009           2.559e+01     
   0.000         351.000           -4.778e-01          -1.965e+01             136.708          -5.307e-01             288.062           2.559e+01     
   0.000         352.000           -4.778e-01          -2.091e+01             141.722          -5.173e-01             288.115           2.559e+01     
   0.000         353.000           -4.778e-01          -2.228e+01             148.521          -5.065e-01             288.168           2.559e+01     
   0.000         354.000           -4.778e-01          -2.371e+01             157.931          -4.984e-01             288.221           2.559e+01     
   0.000         355.000           -4.778e-01          -2.504e+01             170.911          -4.930e-01             288.273           2.559e+01     
   0.000         356.000           -4.778e-01          -2.593e+01             187.753          -4.902e-01             288.326           2.559e+01     
   0.000         357.000           -4.778e-01          -2.599e+01             206.597          -4.900e-01             288.378           2.559e+01     
   0.000         358.000           -4.778e-01          -2.519e+01             223.855          -4.925e-01             288.431           2.559e+01     
   0.000         359.000           -4.778e-01          -2.390e+01             237.341          -4.976e-01             288.484           2.559e+01     
