Theta [deg.]  Phi   [deg.]  Abs(Dir.)[dBi   ]   Abs(Theta)[dBi   ]  Phase(Theta)[deg.]  Abs(Phi  )[dBi   ]  Phase(Phi  )[deg.]  Ax.Ratio[dB    ]    
------------------------------------------------------------------------------------------------------------------------------------------------------
  90.000           0.000            2.724e+00          -2.755e+01              89.925           2.720e+00             215.066           3.202e+01     
  90.000           1.000            2.704e+00          -2.756e+01              90.936           2.700e+00             215.094           3.191e+01     
  90.000           2.000            2.680e+00          -2.758e+01              91.967           2.676e+00             215.124           3.180e+01     
  90.000           3.000            2.654e+00          -2.760e+01              93.018           2.650e+00             215.156           3.170e+01     
  90.000           4.000            2.624e+00          -2.762e+01              94.089           2.620e+00             215.190           3.159e+01     
  90.000           5.000            2.591e+00          -2.764e+01              95.179           2.587e+00             215.226           3.148e+01     
  90.000           6.000            2.555e+00          -2.766e+01              96.290           2.551e+00             215.263           3.137e+01     
  90.000           7.000            2.516e+00          -2.768e+01              97.421           2.512e+00             215.302           3.126e+01     
  90.000           8.000            2.474e+00          -2.770e+01              98.570           2.470e+00             215.342           3.116e+01     
  90.000           9.000            2.428e+00          -2.772e+01              99.739           2.424e+00             215.383           3.105e+01     
  90.000          10.000            2.380e+00          -2.774e+01             100.927           2.376e+00             215.426           3.094e+01     
  90.000          11.000            2.328e+00          -2.776e+01             102.134           2.324e+00             215.471           3.083e+01     
  90.000          12.000            2.273e+00          -2.778e+01             103.359           2.269e+00             215.516           3.072e+01     
  90.000          13.000            2.215e+00          -2.780e+01             104.601           2.211e+00             215.563           3.061e+01     
  90.000          14.000            2.154e+00          -2.782e+01             105.861           2.149e+00             215.611           3.050e+01     
  90.000          15.000            2.089e+00          -2.784e+01             107.138           2.085e+00             215.659           3.039e+01     
  90.000          16.000            2.021e+00          -2.786e+01             108.431           2.017e+00             215.709           3.028e+01     
  90.000          17.000            1.950e+00          -2.788e+01             109.740           1.946e+00             215.759           3.017e+01     
  90.000          18.000            1.876e+00          -2.790e+01             111.064           1.872e+00             215.810           3.006e+01     
  90.000          19.000            1.799e+00          -2.791e+01             112.403           1.794e+00             215.861           2.995e+01     
  90.000          20.000            1.718e+00          -2.793e+01             113.755           1.713e+00             215.912           2.984e+01     
  90.000          21.000            1.634e+00          -2.794e+01             115.121           1.629e+00             215.964           2.973e+01     
  90.000          22.000            1.547e+00          -2.796e+01             116.498           1.542e+00             216.016           2.962e+01     
  90.000          23.000            1.456e+00          -2.797e+01             117.887           1.451e+00             216.067           2.951e+01     
  90.000          24.000            1.362e+00          -2.798e+01             119.286           1.357e+00             216.118           2.940e+01     
  90.000          25.000            1.265e+00          -2.799e+01             120.695           1.260e+00             216.168           2.929e+01     
  90.000          26.000            1.164e+00          -2.800e+01             122.112           1.159e+00             216.218           2.918e+01     
  90.000          27.000            1.060e+00          -2.801e+01             123.537           1.054e+00             216.267           2.907e+01     
  90.000          28.000            9.522e-01          -2.801e+01             124.969           9.467e-01             216.314           2.896e+01     
  90.000          29.000            8.411e-01          -2.802e+01             126.405           8.354e-01             216.360           2.885e+01     
  90.000          30.000            7.265e-01          -2.802e+01             127.847           7.207e-01             216.404           2.875e+01     
  90.000          31.000            6.083e-01          -2.802e+01             129.291           6.023e-01             216.446           2.864e+01     
  90.000          32.000            4.865e-01          -2.802e+01             130.738           4.804e-01             216.486           2.853e+01     
  90.000          33.000            3.611e-01          -2.802e+01             132.185           3.548e-01             216.523           2.842e+01     
  90.000          34.000            2.320e-01          -2.802e+01             133.633           2.255e-01             216.558           2.831e+01     
  90.000          35.000            9.920e-02          -2.801e+01             135.079           9.249e-02             216.588           2.820e+01     
  90.000          36.000           -3.739e-02          -2.800e+01             136.522          -4.433e-02             216.615           2.809e+01     
  90.000          37.000           -1.778e-01          -2.800e+01             137.963          -1.850e-01             216.638           2.798e+01     
  90.000          38.000           -3.221e-01          -2.799e+01             139.398          -3.296e-01             216.657           2.787e+01     
  90.000          39.000           -4.704e-01          -2.797e+01             140.828          -4.781e-01             216.670           2.776e+01     
  90.000          40.000           -6.227e-01          -2.796e+01             142.251          -6.308e-01             216.678           2.766e+01     
  90.000          41.000           -7.792e-01          -2.795e+01             143.665          -7.875e-01             216.679           2.755e+01     
  90.000          42.000           -9.398e-01          -2.793e+01             145.071          -9.485e-01             216.674           2.744e+01     
  90.000          43.000           -1.105e+00          -2.791e+01             146.467          -1.114e+00             216.661           2.733e+01     
  90.000          44.000           -1.274e+00          -2.789e+01             147.852          -1.283e+00             216.641           2.722e+01     
  90.000          45.000           -1.448e+00          -2.787e+01             149.224          -1.457e+00             216.612           2.711e+01     
  90.000          46.000           -1.626e+00          -2.785e+01             150.584          -1.636e+00             216.573           2.700e+01     
  90.000          47.000           -1.809e+00          -2.783e+01             151.929          -1.820e+00             216.524           2.689e+01     
  90.000          48.000           -1.997e+00          -2.780e+01             153.261          -2.008e+00             216.463           2.679e+01     
  90.000          49.000           -2.189e+00          -2.778e+01             154.576          -2.201e+00             216.391           2.668e+01     
  90.000          50.000           -2.387e+00          -2.775e+01             155.876          -2.400e+00             216.305           2.657e+01     
  90.000          51.000           -2.590e+00          -2.772e+01             157.158          -2.603e+00             216.204           2.646e+01     
  90.000          52.000           -2.798e+00          -2.770e+01             158.422          -2.812e+00             216.088           2.635e+01     
  90.000          53.000           -3.012e+00          -2.767e+01             159.669          -3.027e+00             215.955           2.625e+01     
  90.000          54.000           -3.232e+00          -2.764e+01             160.896          -3.248e+00             215.803           2.614e+01     
  90.000          55.000           -3.457e+00          -2.761e+01             162.104          -3.474e+00             215.630           2.604e+01     
  90.000          56.000           -3.689e+00          -2.758e+01             163.291          -3.707e+00             215.436           2.594e+01     
  90.000          57.000           -3.927e+00          -2.755e+01             164.458          -3.946e+00             215.217           2.584e+01     
  90.000          58.000           -4.172e+00          -2.752e+01             165.604          -4.192e+00             214.973           2.574e+01     
  90.000          59.000           -4.423e+00          -2.749e+01             166.728          -4.445e+00             214.699           2.564e+01     
  90.000          60.000           -4.682e+00          -2.745e+01             167.831          -4.705e+00             214.394           2.555e+01     
  90.000          61.000           -4.947e+00          -2.742e+01             168.911          -4.972e+00             214.055           2.546e+01     
  90.000          62.000           -5.221e+00          -2.739e+01             169.969          -5.247e+00             213.678           2.538e+01     
  90.000          63.000           -5.502e+00          -2.736e+01             171.003          -5.531e+00             213.259           2.531e+01     
  90.000          64.000           -5.792e+00          -2.733e+01             172.015          -5.823e+00             212.795           2.524e+01     
  90.000          65.000           -6.090e+00          -2.730e+01             173.002          -6.123e+00             212.280           2.519e+01     
  90.000          66.000           -6.398e+00          -2.727e+01             173.967          -6.433e+00             211.710           2.514e+01     
  90.000          67.000           -6.714e+00          -2.724e+01             174.907          -6.753e+00             211.079           2.512e+01     
  90.000          68.000           -7.040e+00          -2.721e+01             175.823          -7.082e+00             210.379           2.511e+01     
  90.000          69.000           -7.376e+00          -2.718e+01             176.714          -7.422e+00             209.603           2.513e+01     
  90.000          70.000           -7.723e+00          -2.715e+01             177.581          -7.772e+00             208.743           2.517e+01     
  90.000          71.000           -8.079e+00          -2.712e+01             178.424          -8.134e+00             207.789           2.526e+01     
  90.000          72.000           -8.446e+00          -2.710e+01             179.242          -8.506e+00             206.729           2.540e+01     
  90.000          73.000           -8.824e+00          -2.707e+01             180.034          -8.890e+00             205.550           2.560e+01     
  90.000          74.000           -9.213e+00          -2.704e+01             180.802          -9.285e+00             204.238           2.589e+01     
  90.000          75.000           -9.612e+00          -2.702e+01             181.545          -9.691e+00             202.777           2.629e+01     
  90.000          76.000           -1.002e+01          -2.699e+01             182.262          -1.011e+01             201.147           2.684e+01     
  90.000          77.000           -1.044e+01          -2.697e+01             182.954          -1.054e+01             199.327           2.761e+01     
  90.000          78.000           -1.086e+01          -2.695e+01             183.621          -1.097e+01             197.294           2.871e+01     
  90.000          79.000           -1.129e+01          -2.692e+01             184.262          -1.141e+01             195.020           3.032e+01     
  90.000          80.000           -1.173e+01          -2.690e+01             184.878          -1.186e+01             192.479           3.288e+01     
  90.000          81.000           -1.216e+01          -2.688e+01             185.468          -1.231e+01             189.639           3.764e+01     
  90.000          82.000           -1.258e+01          -2.686e+01             186.032          -1.275e+01             186.472           4.000e+01     
  90.000          83.000           -1.299e+01          -2.684e+01             186.571          -1.318e+01             182.951           3.803e+01     
  90.000          84.000           -1.338e+01          -2.683e+01             187.084          -1.358e+01             179.056           3.074e+01     
  90.000          85.000           -1.374e+01          -2.681e+01             187.572          -1.396e+01             174.777           2.637e+01     
  90.000          86.000           -1.405e+01          -2.679e+01             188.033          -1.429e+01             170.121           2.318e+01     
  90.000          87.000           -1.431e+01          -2.678e+01             188.469          -1.456e+01             165.119           2.069e+01     
  90.000          88.000           -1.450e+01          -2.677e+01             188.879          -1.477e+01             159.828           1.869e+01     
  90.000          89.000           -1.462e+01          -2.675e+01             189.263          -1.489e+01             154.332           1.708e+01     
  90.000          90.000           -1.465e+01          -2.674e+01             189.620          -1.493e+01             148.735           1.582e+01     
  90.000          91.000           -1.460e+01          -2.673e+01             189.952          -1.488e+01             143.155           1.487e+01     
  90.000          92.000           -1.448e+01          -2.672e+01             190.258          -1.474e+01             137.707           1.419e+01     
  90.000          93.000           -1.427e+01          -2.671e+01             190.539          -1.453e+01             132.488           1.376e+01     
  90.000          94.000           -1.401e+01          -2.670e+01             190.793          -1.425e+01             127.575           1.354e+01     
  90.000          95.000           -1.370e+01          -2.669e+01             191.022          -1.392e+01             123.014           1.350e+01     
  90.000          96.000           -1.335e+01          -2.669e+01             191.224          -1.355e+01             118.827           1.359e+01     
  90.000          97.000           -1.296e+01          -2.668e+01             191.401          -1.315e+01             115.016           1.380e+01     
  90.000          98.000           -1.257e+01          -2.667e+01             191.551          -1.274e+01             111.566           1.408e+01     
  90.000          99.000           -1.216e+01          -2.667e+01             191.676          -1.231e+01             108.455           1.442e+01     
  90.000         100.000           -1.174e+01          -2.667e+01             191.775          -1.188e+01             105.654           1.480e+01     
  90.000         101.000           -1.133e+01          -2.666e+01             191.848          -1.146e+01             103.135           1.521e+01     
  90.000         102.000           -1.092e+01          -2.666e+01             191.895          -1.103e+01             100.867           1.563e+01     
  90.000         103.000           -1.051e+01          -2.666e+01             191.917          -1.062e+01              98.823           1.605e+01     
  90.000         104.000           -1.012e+01          -2.665e+01             191.913          -1.021e+01              96.978           1.647e+01     
  90.000         105.000           -9.731e+00          -2.665e+01             191.884          -9.820e+00              95.309           1.689e+01     
  90.000         106.000           -9.355e+00          -2.665e+01             191.828          -9.437e+00              93.796           1.730e+01     
  90.000         107.000           -8.990e+00          -2.665e+01             191.748          -9.065e+00              92.420           1.771e+01     
  90.000         108.000           -8.636e+00          -2.665e+01             191.642          -8.705e+00              91.166           1.810e+01     
  90.000         109.000           -8.293e+00          -2.665e+01             191.512          -8.357e+00              90.019           1.848e+01     
  90.000         110.000           -7.961e+00          -2.665e+01             191.356          -8.020e+00              88.969           1.884e+01     
  90.000         111.000           -7.639e+00          -2.665e+01             191.175          -7.694e+00              88.003           1.920e+01     
  90.000         112.000           -7.328e+00          -2.665e+01             190.970          -7.379e+00              87.113           1.954e+01     
  90.000         113.000           -7.027e+00          -2.666e+01             190.740          -7.075e+00              86.291           1.987e+01     
  90.000         114.000           -6.736e+00          -2.666e+01             190.486          -6.780e+00              85.529           2.018e+01     
  90.000         115.000           -6.454e+00          -2.666e+01             190.208          -6.496e+00              84.821           2.048e+01     
  90.000         116.000           -6.182e+00          -2.666e+01             189.906          -6.221e+00              84.161           2.078e+01     
  90.000         117.000           -5.918e+00          -2.666e+01             189.580          -5.955e+00              83.545           2.106e+01     
  90.000         118.000           -5.663e+00          -2.666e+01             189.231          -5.698e+00              82.969           2.132e+01     
  90.000         119.000           -5.416e+00          -2.666e+01             188.859          -5.449e+00              82.427           2.158e+01     
  90.000         120.000           -5.177e+00          -2.666e+01             188.464          -5.208e+00              81.918           2.183e+01     
  90.000         121.000           -4.946e+00          -2.666e+01             188.047          -4.975e+00              81.437           2.206e+01     
  90.000         122.000           -4.722e+00          -2.666e+01             187.607          -4.750e+00              80.982           2.229e+01     
  90.000         123.000           -4.505e+00          -2.666e+01             187.146          -4.532e+00              80.551           2.250e+01     
  90.000         124.000           -4.296e+00          -2.666e+01             186.663          -4.321e+00              80.142           2.271e+01     
  90.000         125.000           -4.092e+00          -2.666e+01             186.160          -4.117e+00              79.752           2.291e+01     
  90.000         126.000           -3.896e+00          -2.666e+01             185.635          -3.919e+00              79.379           2.310e+01     
  90.000         127.000           -3.705e+00          -2.666e+01             185.091          -3.727e+00              79.023           2.328e+01     
  90.000         128.000           -3.521e+00          -2.665e+01             184.527          -3.542e+00              78.681           2.345e+01     
  90.000         129.000           -3.342e+00          -2.665e+01             183.943          -3.363e+00              78.352           2.362e+01     
  90.000         130.000           -3.169e+00          -2.665e+01             183.341          -3.189e+00              78.036           2.377e+01     
  90.000         131.000           -3.002e+00          -2.664e+01             182.720          -3.021e+00              77.731           2.392e+01     
  90.000         132.000           -2.840e+00          -2.664e+01             182.081          -2.858e+00              77.435           2.407e+01     
  90.000         133.000           -2.684e+00          -2.663e+01             181.425          -2.701e+00              77.149           2.420e+01     
  90.000         134.000           -2.532e+00          -2.662e+01             180.752          -2.549e+00              76.872           2.433e+01     
  90.000         135.000           -2.386e+00          -2.662e+01             180.062          -2.402e+00              76.602           2.446e+01     
  90.000         136.000           -2.244e+00          -2.661e+01             179.358          -2.260e+00              76.338           2.458e+01     
  90.000         137.000           -2.107e+00          -2.660e+01             178.637          -2.123e+00              76.082           2.469e+01     
  90.000         138.000           -1.975e+00          -2.659e+01             177.902          -1.990e+00              75.831           2.479e+01     
  90.000         139.000           -1.848e+00          -2.658e+01             177.152          -1.862e+00              75.586           2.490e+01     
  90.000         140.000           -1.725e+00          -2.657e+01             176.388          -1.739e+00              75.345           2.499e+01     
  90.000         141.000           -1.606e+00          -2.656e+01             175.612          -1.620e+00              75.109           2.508e+01     
  90.000         142.000           -1.492e+00          -2.654e+01             174.823          -1.505e+00              74.877           2.517e+01     
  90.000         143.000           -1.382e+00          -2.653e+01             174.022          -1.395e+00              74.649           2.525e+01     
  90.000         144.000           -1.276e+00          -2.652e+01             173.209          -1.289e+00              74.425           2.533e+01     
  90.000         145.000           -1.174e+00          -2.650e+01             172.385          -1.187e+00              74.203           2.540e+01     
  90.000         146.000           -1.076e+00          -2.648e+01             171.551          -1.089e+00              73.985           2.547e+01     
  90.000         147.000           -9.826e-01          -2.647e+01             170.707          -9.949e-01              73.769           2.554e+01     
  90.000         148.000           -8.929e-01          -2.645e+01             169.853          -9.049e-01              73.556           2.560e+01     
  90.000         149.000           -8.070e-01          -2.643e+01             168.991          -8.189e-01              73.345           2.566e+01     
  90.000         150.000           -7.250e-01          -2.642e+01             168.120          -7.367e-01              73.136           2.571e+01     
  90.000         151.000           -6.468e-01          -2.640e+01             167.241          -6.584e-01              72.930           2.576e+01     
  90.000         152.000           -5.724e-01          -2.638e+01             166.355          -5.838e-01              72.725           2.581e+01     
  90.000         153.000           -5.017e-01          -2.636e+01             165.462          -5.130e-01              72.522           2.586e+01     
  90.000         154.000           -4.347e-01          -2.634e+01             164.562          -4.458e-01              72.321           2.590e+01     
  90.000         155.000           -3.713e-01          -2.632e+01             163.656          -3.824e-01              72.122           2.594e+01     
  90.000         156.000           -3.116e-01          -2.630e+01             162.745          -3.225e-01              71.924           2.598e+01     
  90.000         157.000           -2.554e-01          -2.628e+01             161.828          -2.663e-01              71.728           2.601e+01     
  90.000         158.000           -2.028e-01          -2.626e+01             160.907          -2.136e-01              71.533           2.604e+01     
  90.000         159.000           -1.538e-01          -2.624e+01             159.981          -1.645e-01              71.339           2.607e+01     
  90.000         160.000           -1.083e-01          -2.621e+01             159.051          -1.190e-01              71.147           2.610e+01     
  90.000         161.000           -6.630e-02          -2.619e+01             158.117          -7.691e-02              70.956           2.613e+01     
  90.000         162.000           -2.779e-02          -2.617e+01             157.180          -3.836e-02              70.767           2.615e+01     
  90.000         163.000            7.252e-03          -2.615e+01             156.239          -3.283e-03              70.579           2.617e+01     
  90.000         164.000            3.883e-02          -2.613e+01             155.296           2.832e-02              70.392           2.619e+01     
  90.000         165.000            6.697e-02          -2.611e+01             154.351           5.648e-02              70.206           2.621e+01     
  90.000         166.000            9.167e-02          -2.608e+01             153.403           8.118e-02              70.022           2.622e+01     
  90.000         167.000            1.129e-01          -2.606e+01             152.454           1.025e-01              69.839           2.624e+01     
  90.000         168.000            1.308e-01          -2.604e+01             151.502           1.203e-01              69.658           2.625e+01     
  90.000         169.000            1.452e-01          -2.602e+01             150.550           1.347e-01              69.478           2.626e+01     
  90.000         170.000            1.562e-01          -2.600e+01             149.596           1.457e-01              69.299           2.627e+01     
  90.000         171.000            1.638e-01          -2.598e+01             148.642           1.533e-01              69.122           2.628e+01     
  90.000         172.000            1.680e-01          -2.596e+01             147.686           1.574e-01              68.946           2.629e+01     
  90.000         173.000            1.688e-01          -2.594e+01             146.731           1.582e-01              68.771           2.630e+01     
  90.000         174.000            1.662e-01          -2.593e+01             145.774           1.555e-01              68.598           2.630e+01     
  90.000         175.000            1.601e-01          -2.591e+01             144.818           1.494e-01              68.427           2.631e+01     
  90.000         176.000            1.506e-01          -2.589e+01             143.862           1.398e-01              68.257           2.631e+01     
  90.000         177.000            1.377e-01          -2.588e+01             142.906           1.268e-01              68.089           2.631e+01     
  90.000         178.000            1.213e-01          -2.586e+01             141.950           1.103e-01              67.922           2.631e+01     
  90.000         179.000            1.015e-01          -2.585e+01             140.995           9.043e-02              67.757           2.632e+01     
  90.000         180.000            7.820e-02          -2.583e+01             140.041           6.704e-02              67.594           2.632e+01     
  90.000         181.000            5.141e-02          -2.582e+01             139.087           4.015e-02              67.432           2.631e+01     
  90.000         182.000            2.112e-02          -2.581e+01             138.134           9.755e-03              67.272           2.631e+01     
  90.000         183.000           -1.269e-02          -2.580e+01             137.182          -2.417e-02              67.114           2.631e+01     
  90.000         184.000           -5.003e-02          -2.579e+01             136.231          -6.164e-02              66.958           2.631e+01     
  90.000         185.000           -9.093e-02          -2.578e+01             135.281          -1.027e-01              66.804           2.630e+01     
  90.000         186.000           -1.354e-01          -2.577e+01             134.333          -1.473e-01              66.652           2.630e+01     
  90.000         187.000           -1.835e-01          -2.576e+01             133.386          -1.956e-01              66.501           2.630e+01     
  90.000         188.000           -2.352e-01          -2.576e+01             132.441          -2.474e-01              66.353           2.629e+01     
  90.000         189.000           -2.906e-01          -2.575e+01             131.497          -3.030e-01              66.207           2.629e+01     
  90.000         190.000           -3.497e-01          -2.575e+01             130.555          -3.623e-01              66.063           2.628e+01     
  90.000         191.000           -4.125e-01          -2.574e+01             129.614          -4.253e-01              65.921           2.627e+01     
  90.000         192.000           -4.791e-01          -2.574e+01             128.675          -4.920e-01              65.782           2.627e+01     
  90.000         193.000           -5.495e-01          -2.574e+01             127.739          -5.626e-01              65.644           2.626e+01     
  90.000         194.000           -6.237e-01          -2.574e+01             126.804          -6.371e-01              65.510           2.625e+01     
  90.000         195.000           -7.018e-01          -2.575e+01             125.871          -7.154e-01              65.377           2.624e+01     
  90.000         196.000           -7.838e-01          -2.575e+01             124.940          -7.977e-01              65.247           2.624e+01     
  90.000         197.000           -8.699e-01          -2.576e+01             124.011          -8.840e-01              65.120           2.623e+01     
  90.000         198.000           -9.599e-01          -2.576e+01             123.085          -9.743e-01              64.995           2.622e+01     
  90.000         199.000           -1.054e+00          -2.577e+01             122.161          -1.069e+00              64.874           2.621e+01     
  90.000         200.000           -1.152e+00          -2.578e+01             121.239          -1.167e+00              64.755           2.620e+01     
  90.000         201.000           -1.255e+00          -2.579e+01             120.319          -1.270e+00              64.639           2.619e+01     
  90.000         202.000           -1.362e+00          -2.580e+01             119.402          -1.377e+00              64.525           2.618e+01     
  90.000         203.000           -1.473e+00          -2.581e+01             118.488          -1.489e+00              64.416           2.617e+01     
  90.000         204.000           -1.588e+00          -2.583e+01             117.576          -1.605e+00              64.309           2.616e+01     
  90.000         205.000           -1.709e+00          -2.584e+01             116.666          -1.725e+00              64.206           2.615e+01     
  90.000         206.000           -1.833e+00          -2.586e+01             115.760          -1.850e+00              64.106           2.613e+01     
  90.000         207.000           -1.963e+00          -2.588e+01             114.856          -1.980e+00              64.011           2.612e+01     
  90.000         208.000           -2.097e+00          -2.590e+01             113.955          -2.115e+00              63.919           2.611e+01     
  90.000         209.000           -2.236e+00          -2.592e+01             113.057          -2.255e+00              63.831           2.609e+01     
  90.000         210.000           -2.380e+00          -2.594e+01             112.161          -2.399e+00              63.748           2.608e+01     
  90.000         211.000           -2.530e+00          -2.596e+01             111.269          -2.549e+00              63.669           2.607e+01     
  90.000         212.000           -2.684e+00          -2.599e+01             110.380          -2.705e+00              63.595           2.605e+01     
  90.000         213.000           -2.844e+00          -2.601e+01             109.494          -2.865e+00              63.527           2.604e+01     
  90.000         214.000           -3.010e+00          -2.604e+01             108.612          -3.032e+00              63.464           2.602e+01     
  90.000         215.000           -3.182e+00          -2.607e+01             107.732          -3.204e+00              63.406           2.600e+01     
  90.000         216.000           -3.359e+00          -2.610e+01             106.856          -3.382e+00              63.355           2.599e+01     
  90.000         217.000           -3.543e+00          -2.613e+01             105.984          -3.567e+00              63.311           2.597e+01     
  90.000         218.000           -3.733e+00          -2.616e+01             105.115          -3.758e+00              63.274           2.595e+01     
  90.000         219.000           -3.929e+00          -2.619e+01             104.250          -3.955e+00              63.244           2.593e+01     
  90.000         220.000           -4.133e+00          -2.623e+01             103.389          -4.160e+00              63.223           2.591e+01     
  90.000         221.000           -4.343e+00          -2.626e+01             102.532          -4.371e+00              63.211           2.589e+01     
  90.000         222.000           -4.561e+00          -2.630e+01             101.679          -4.591e+00              63.209           2.587e+01     
  90.000         223.000           -4.787e+00          -2.634e+01             100.829          -4.818e+00              63.217           2.585e+01     
  90.000         224.000           -5.021e+00          -2.637e+01              99.985          -5.053e+00              63.237           2.582e+01     
  90.000         225.000           -5.263e+00          -2.641e+01              99.142          -5.297e+00              63.270           2.580e+01     
  90.000         226.000           -5.515e+00          -2.645e+01              98.306          -5.550e+00              63.317           2.578e+01     
  90.000         227.000           -5.775e+00          -2.649e+01              97.475          -5.812e+00              63.379           2.576e+01     
  90.000         228.000           -6.046e+00          -2.653e+01              96.648          -6.085e+00              63.458           2.574e+01     
  90.000         229.000           -6.327e+00          -2.658e+01              95.827          -6.368e+00              63.555           2.572e+01     
  90.000         230.000           -6.619e+00          -2.662e+01              95.010          -6.663e+00              63.674           2.570e+01     
  90.000         231.000           -6.923e+00          -2.666e+01              94.199          -6.970e+00              63.815           2.568e+01     
  90.000         232.000           -7.240e+00          -2.671e+01              93.393          -7.289e+00              63.983           2.567e+01     
  90.000         233.000           -7.570e+00          -2.675e+01              92.593          -7.623e+00              64.180           2.566e+01     
  90.000         234.000           -7.914e+00          -2.679e+01              91.799          -7.971e+00              64.409           2.566e+01     
  90.000         235.000           -8.274e+00          -2.684e+01              91.010          -8.335e+00              64.676           2.566e+01     
  90.000         236.000           -8.650e+00          -2.688e+01              90.228          -8.716e+00              64.986           2.568e+01     
  90.000         237.000           -9.044e+00          -2.693e+01              89.452          -9.115e+00              65.344           2.571e+01     
  90.000         238.000           -9.458e+00          -2.698e+01              88.682          -9.535e+00              65.759           2.576e+01     
  90.000         239.000           -9.892e+00          -2.702e+01              87.919          -9.977e+00              66.239           2.584e+01     
  90.000         240.000           -1.035e+01          -2.707e+01              87.163          -1.044e+01              66.795           2.596e+01     
  90.000         241.000           -1.083e+01          -2.711e+01              86.414          -1.094e+01              67.441           2.612e+01     
  90.000         242.000           -1.134e+01          -2.716e+01              85.673          -1.146e+01              68.194           2.636e+01     
  90.000         243.000           -1.188e+01          -2.721e+01              84.939          -1.201e+01              69.074           2.670e+01     
  90.000         244.000           -1.245e+01          -2.725e+01              84.213          -1.260e+01              70.108           2.719e+01     
  90.000         245.000           -1.306e+01          -2.730e+01              83.495          -1.323e+01              71.332           2.791e+01     
  90.000         246.000           -1.371e+01          -2.734e+01              82.785          -1.390e+01              72.789           2.902e+01     
  90.000         247.000           -1.440e+01          -2.739e+01              82.084          -1.463e+01              74.539           3.084e+01     
  90.000         248.000           -1.514e+01          -2.743e+01              81.391          -1.540e+01              76.663           3.423e+01     
  90.000         249.000           -1.593e+01          -2.748e+01              80.707          -1.624e+01              79.267           4.000e+01     
  90.000         250.000           -1.676e+01          -2.752e+01              80.033          -1.714e+01              82.501           3.845e+01     
  90.000         251.000           -1.764e+01          -2.756e+01              79.368          -1.811e+01              86.567           2.841e+01     
  90.000         252.000           -1.855e+01          -2.761e+01              78.712          -1.913e+01              91.741           2.252e+01     
  90.000         253.000           -1.946e+01          -2.765e+01              78.067          -2.017e+01              98.377           1.796e+01     
  90.000         254.000           -2.031e+01          -2.769e+01              77.432          -2.118e+01             106.869           1.410e+01     
  90.000         255.000           -2.101e+01          -2.773e+01              76.807          -2.205e+01             117.501           1.078e+01     
  90.000         256.000           -2.145e+01          -2.777e+01              76.192          -2.260e+01             130.109           8.062e+00     
  90.000         257.000           -2.153e+01          -2.781e+01              75.589          -2.270e+01             143.753           6.238e+00     
  90.000         258.000           -2.123e+01          -2.784e+01              74.997          -2.230e+01             156.934           5.697e+00     
  90.000         259.000           -2.062e+01          -2.788e+01              74.416          -2.152e+01             168.416           6.393e+00     
  90.000         260.000           -1.981e+01          -2.791e+01              73.846          -2.053e+01             177.748           7.748e+00     
  90.000         261.000           -1.890e+01          -2.795e+01              73.289          -1.948e+01             185.081           9.308e+00     
  90.000         262.000           -1.797e+01          -2.798e+01              72.743          -1.843e+01             190.795           1.087e+01     
  90.000         263.000           -1.706e+01          -2.801e+01              72.210          -1.742e+01             195.269           1.236e+01     
  90.000         264.000           -1.619e+01          -2.804e+01              71.689          -1.648e+01             198.809           1.376e+01     
  90.000         265.000           -1.536e+01          -2.807e+01              71.180          -1.560e+01             201.647           1.506e+01     
  90.000         266.000           -1.458e+01          -2.810e+01              70.685          -1.478e+01             203.951           1.627e+01     
  90.000         267.000           -1.386e+01          -2.813e+01              70.202          -1.402e+01             205.842           1.739e+01     
  90.000         268.000           -1.317e+01          -2.815e+01              69.733          -1.331e+01             207.412           1.843e+01     
  90.000         269.000           -1.253e+01          -2.818e+01              69.276          -1.265e+01             208.726           1.941e+01     
  90.000         270.000           -1.192e+01          -2.820e+01              68.834          -1.203e+01             209.836           2.032e+01     
  90.000         271.000           -1.135e+01          -2.822e+01              68.405          -1.144e+01             210.778           2.118e+01     
  90.000         272.000           -1.081e+01          -2.824e+01              67.990          -1.089e+01             211.584           2.198e+01     
  90.000         273.000           -1.030e+01          -2.825e+01              67.588          -1.037e+01             212.275           2.274e+01     
  90.000         274.000           -9.811e+00          -2.827e+01              67.200          -9.873e+00             212.871           2.346e+01     
  90.000         275.000           -9.348e+00          -2.829e+01              66.827          -9.404e+00             213.387           2.414e+01     
  90.000         276.000           -8.906e+00          -2.830e+01              66.467          -8.957e+00             213.834           2.478e+01     
  90.000         277.000           -8.485e+00          -2.831e+01              66.122          -8.530e+00             214.221           2.539e+01     
  90.000         278.000           -8.081e+00          -2.832e+01              65.791          -8.122e+00             214.558           2.596e+01     
  90.000         279.000           -7.694e+00          -2.833e+01              65.475          -7.732e+00             214.850           2.651e+01     
  90.000         280.000           -7.323e+00          -2.833e+01              65.173          -7.358e+00             215.104           2.703e+01     
  90.000         281.000           -6.967e+00          -2.834e+01              64.886          -6.998e+00             215.325           2.753e+01     
  90.000         282.000           -6.623e+00          -2.834e+01              64.613          -6.653e+00             215.515           2.800e+01     
  90.000         283.000           -6.293e+00          -2.835e+01              64.355          -6.320e+00             215.679           2.845e+01     
  90.000         284.000           -5.974e+00          -2.835e+01              64.111          -5.999e+00             215.820           2.887e+01     
  90.000         285.000           -5.666e+00          -2.835e+01              63.882          -5.689e+00             215.940           2.928e+01     
  90.000         286.000           -5.368e+00          -2.834e+01              63.667          -5.390e+00             216.042           2.966e+01     
  90.000         287.000           -5.081e+00          -2.834e+01              63.468          -5.101e+00             216.128           3.003e+01     
  90.000         288.000           -4.802e+00          -2.833e+01              63.282          -4.821e+00             216.198           3.038e+01     
  90.000         289.000           -4.532e+00          -2.833e+01              63.112          -4.550e+00             216.256           3.071e+01     
  90.000         290.000           -4.271e+00          -2.832e+01              62.956          -4.288e+00             216.301           3.102e+01     
  90.000         291.000           -4.017e+00          -2.831e+01              62.815          -4.033e+00             216.336           3.132e+01     
  90.000         292.000           -3.771e+00          -2.830e+01              62.688          -3.786e+00             216.362           3.160e+01     
  90.000         293.000           -3.532e+00          -2.829e+01              62.576          -3.546e+00             216.379           3.187e+01     
  90.000         294.000           -3.300e+00          -2.828e+01              62.478          -3.313e+00             216.388           3.212e+01     
  90.000         295.000           -3.074e+00          -2.826e+01              62.395          -3.087e+00             216.390           3.236e+01     
  90.000         296.000           -2.855e+00          -2.825e+01              62.326          -2.867e+00             216.386           3.258e+01     
  90.000         297.000           -2.641e+00          -2.823e+01              62.272          -2.653e+00             216.376           3.279e+01     
  90.000         298.000           -2.434e+00          -2.821e+01              62.232          -2.445e+00             216.361           3.299e+01     
  90.000         299.000           -2.232e+00          -2.820e+01              62.206          -2.243e+00             216.342           3.318e+01     
  90.000         300.000           -2.036e+00          -2.818e+01              62.195          -2.046e+00             216.319           3.335e+01     
  90.000         301.000           -1.844e+00          -2.816e+01              62.198          -1.854e+00             216.292           3.351e+01     
  90.000         302.000           -1.658e+00          -2.814e+01              62.216          -1.668e+00             216.262           3.366e+01     
  90.000         303.000           -1.477e+00          -2.812e+01              62.248          -1.487e+00             216.230           3.380e+01     
  90.000         304.000           -1.301e+00          -2.810e+01              62.294          -1.310e+00             216.194           3.393e+01     
  90.000         305.000           -1.129e+00          -2.807e+01              62.354          -1.138e+00             216.157           3.405e+01     
  90.000         306.000           -9.620e-01          -2.805e+01              62.429          -9.705e-01             216.118           3.416e+01     
  90.000         307.000           -7.993e-01          -2.803e+01              62.518          -8.076e-01             216.077           3.426e+01     
  90.000         308.000           -6.410e-01          -2.800e+01              62.622          -6.490e-01             216.035           3.435e+01     
  90.000         309.000           -4.870e-01          -2.798e+01              62.740          -4.947e-01             215.992           3.443e+01     
  90.000         310.000           -3.371e-01          -2.796e+01              62.872          -3.446e-01             215.948           3.451e+01     
  90.000         311.000           -1.913e-01          -2.793e+01              63.018          -1.986e-01             215.904           3.457e+01     
  90.000         312.000           -4.950e-02          -2.791e+01              63.179          -5.662e-02             215.859           3.463e+01     
  90.000         313.000            8.835e-02          -2.788e+01              63.355           8.142e-02             215.814           3.468e+01     
  90.000         314.000            2.223e-01          -2.786e+01              63.545           2.156e-01             215.768           3.472e+01     
  90.000         315.000            3.525e-01          -2.784e+01              63.749           3.459e-01             215.723           3.475e+01     
  90.000         316.000            4.789e-01          -2.781e+01              63.970           4.724e-01             215.678           3.478e+01     
  90.000         317.000            6.015e-01          -2.779e+01              64.204           5.952e-01             215.633           3.480e+01     
  90.000         318.000            7.206e-01          -2.776e+01              64.453           7.144e-01             215.589           3.481e+01     
  90.000         319.000            8.360e-01          -2.774e+01              64.716           8.299e-01             215.545           3.482e+01     
  90.000         320.000            9.478e-01          -2.772e+01              64.994           9.419e-01             215.502           3.482e+01     
  90.000         321.000            1.056e+00          -2.769e+01              65.288           1.050e+00             215.460           3.482e+01     
  90.000         322.000            1.161e+00          -2.767e+01              65.596           1.155e+00             215.419           3.481e+01     
  90.000         323.000            1.262e+00          -2.765e+01              65.920           1.257e+00             215.378           3.480e+01     
  90.000         324.000            1.360e+00          -2.763e+01              66.259           1.354e+00             215.339           3.478e+01     
  90.000         325.000            1.454e+00          -2.761e+01              66.613           1.449e+00             215.301           3.475e+01     
  90.000         326.000            1.545e+00          -2.759e+01              66.983           1.540e+00             215.264           3.472e+01     
  90.000         327.000            1.633e+00          -2.757e+01              67.369           1.628e+00             215.229           3.469e+01     
  90.000         328.000            1.717e+00          -2.755e+01              67.770           1.712e+00             215.194           3.465e+01     
  90.000         329.000            1.798e+00          -2.754e+01              68.188           1.793e+00             215.162           3.461e+01     
  90.000         330.000            1.876e+00          -2.752e+01              68.621           1.871e+00             215.131           3.456e+01     
  90.000         331.000            1.951e+00          -2.751e+01              69.071           1.946e+00             215.101           3.451e+01     
  90.000         332.000            2.022e+00          -2.749e+01              69.538           2.017e+00             215.073           3.446e+01     
  90.000         333.000            2.090e+00          -2.748e+01              70.020           2.085e+00             215.047           3.440e+01     
  90.000         334.000            2.154e+00          -2.747e+01              70.520           2.150e+00             215.022           3.434e+01     
  90.000         335.000            2.216e+00          -2.745e+01              71.037           2.211e+00             214.999           3.428e+01     
  90.000         336.000            2.274e+00          -2.744e+01              71.570           2.269e+00             214.978           3.421e+01     
  90.000         337.000            2.329e+00          -2.743e+01              72.121           2.324e+00             214.959           3.414e+01     
  90.000         338.000            2.381e+00          -2.743e+01              72.689           2.376e+00             214.942           3.407e+01     
  90.000         339.000            2.429e+00          -2.742e+01              73.275           2.425e+00             214.926           3.400e+01     
  90.000         340.000            2.475e+00          -2.741e+01              73.879           2.470e+00             214.913           3.392e+01     
  90.000         341.000            2.517e+00          -2.741e+01              74.500           2.513e+00             214.901           3.384e+01     
  90.000         342.000            2.556e+00          -2.741e+01              75.140           2.552e+00             214.892           3.376e+01     
  90.000         343.000            2.592e+00          -2.740e+01              75.798           2.588e+00             214.884           3.367e+01     
  90.000         344.000            2.625e+00          -2.740e+01              76.474           2.621e+00             214.878           3.359e+01     
  90.000         345.000            2.655e+00          -2.740e+01              77.169           2.650e+00             214.875           3.350e+01     
  90.000         346.000            2.681e+00          -2.741e+01              77.883           2.677e+00             214.873           3.341e+01     
  90.000         347.000            2.705e+00          -2.741e+01              78.616           2.700e+00             214.874           3.332e+01     
  90.000         348.000            2.725e+00          -2.741e+01              79.367           2.721e+00             214.876           3.323e+01     
  90.000         349.000            2.742e+00          -2.742e+01              80.138           2.738e+00             214.881           3.313e+01     
  90.000         350.000            2.756e+00          -2.742e+01              80.929           2.752e+00             214.888           3.304e+01     
  90.000         351.000            2.767e+00          -2.743e+01              81.739           2.763e+00             214.897           3.294e+01     
  90.000         352.000            2.775e+00          -2.744e+01              82.568           2.770e+00             214.907           3.284e+01     
  90.000         353.000            2.779e+00          -2.745e+01              83.418           2.775e+00             214.920           3.274e+01     
  90.000         354.000            2.781e+00          -2.746e+01              84.287           2.777e+00             214.935           3.264e+01     
  90.000         355.000            2.779e+00          -2.747e+01              85.176           2.775e+00             214.952           3.254e+01     
  90.000         356.000            2.774e+00          -2.749e+01              86.086           2.770e+00             214.971           3.244e+01     
  90.000         357.000            2.766e+00          -2.750e+01              87.015           2.762e+00             214.991           3.233e+01     
  90.000         358.000            2.756e+00          -2.752e+01              87.965           2.751e+00             215.014           3.223e+01     
  90.000         359.000            2.741e+00          -2.753e+01              88.935           2.737e+00             215.039           3.212e+01     
