Theta [deg.]  Phi   [deg.]  Abs(Dir.)[dBi   ]   Abs(Theta)[dBi   ]  Phase(Theta)[deg.]  Abs(Phi  )[dBi   ]  Phase(Phi  )[deg.]  Ax.Ratio[dB    ]    
------------------------------------------------------------------------------------------------------------------------------------------------------
   0.000           0.000           -1.361e+00          -2.437e+01             220.221          -1.383e+00             246.802           3.001e+01     
   0.000           1.000           -1.361e+00          -2.261e+01             225.382          -1.394e+00             246.833           3.001e+01     
   0.000           2.000           -1.361e+00          -2.111e+01             228.923          -1.407e+00             246.865           3.001e+01     
   0.000           3.000           -1.361e+00          -1.981e+01             231.486          -1.424e+00             246.897           3.001e+01     
   0.000           4.000           -1.361e+00          -1.867e+01             233.422          -1.443e+00             246.929           3.001e+01     
   0.000           5.000           -1.361e+00          -1.766e+01             234.932          -1.464e+00             246.961           3.001e+01     
   0.000           6.000           -1.361e+00          -1.675e+01             236.143          -1.489e+00             246.994           3.001e+01     
   0.000           7.000           -1.361e+00          -1.593e+01             237.136          -1.516e+00             247.026           3.001e+01     
   0.000           8.000           -1.361e+00          -1.518e+01             237.963          -1.545e+00             247.059           3.001e+01     
   0.000           9.000           -1.361e+00          -1.449e+01             238.665          -1.578e+00             247.092           3.001e+01     
   0.000          10.000           -1.361e+00          -1.385e+01             239.266          -1.613e+00             247.126           3.001e+01     
   0.000          11.000           -1.361e+00          -1.325e+01             239.789          -1.651e+00             247.159           3.001e+01     
   0.000          12.000           -1.361e+00          -1.270e+01             240.247          -1.692e+00             247.193           3.001e+01     
   0.000          13.000           -1.361e+00          -1.218e+01             240.651          -1.736e+00             247.227           3.001e+01     
   0.000          14.000           -1.361e+00          -1.170e+01             241.012          -1.783e+00             247.262           3.001e+01     
   0.000          15.000           -1.361e+00          -1.124e+01             241.335          -1.832e+00             247.297           3.001e+01     
   0.000          16.000           -1.361e+00          -1.081e+01             241.627          -1.885e+00             247.332           3.001e+01     
   0.000          17.000           -1.361e+00          -1.040e+01             241.892          -1.941e+00             247.368           3.001e+01     
   0.000          18.000           -1.361e+00          -1.001e+01             242.133          -1.999e+00             247.404           3.001e+01     
   0.000          19.000           -1.361e+00          -9.637e+00             242.355          -2.061e+00             247.441           3.001e+01     
   0.000          20.000           -1.361e+00          -9.284e+00             242.558          -2.125e+00             247.478           3.001e+01     
   0.000          21.000           -1.361e+00          -8.947e+00             242.746          -2.193e+00             247.516           3.001e+01     
   0.000          22.000           -1.361e+00          -8.626e+00             242.921          -2.264e+00             247.555           3.001e+01     
   0.000          23.000           -1.361e+00          -8.318e+00             243.083          -2.338e+00             247.594           3.001e+01     
   0.000          24.000           -1.361e+00          -8.024e+00             243.234          -2.416e+00             247.634           3.001e+01     
   0.000          25.000           -1.361e+00          -7.742e+00             243.376          -2.497e+00             247.675           3.001e+01     
   0.000          26.000           -1.361e+00          -7.471e+00             243.509          -2.581e+00             247.716           3.001e+01     
   0.000          27.000           -1.361e+00          -7.210e+00             243.634          -2.669e+00             247.758           3.001e+01     
   0.000          28.000           -1.361e+00          -6.960e+00             243.752          -2.761e+00             247.801           3.001e+01     
   0.000          29.000           -1.361e+00          -6.720e+00             243.863          -2.856e+00             247.845           3.001e+01     
   0.000          30.000           -1.361e+00          -6.488e+00             243.969          -2.955e+00             247.890           3.001e+01     
   0.000          31.000           -1.361e+00          -6.265e+00             244.069          -3.057e+00             247.936           3.001e+01     
   0.000          32.000           -1.361e+00          -6.051e+00             244.164          -3.164e+00             247.983           3.001e+01     
   0.000          33.000           -1.361e+00          -5.843e+00             244.255          -3.274e+00             248.032           3.001e+01     
   0.000          34.000           -1.361e+00          -5.644e+00             244.341          -3.389e+00             248.082           3.001e+01     
   0.000          35.000           -1.361e+00          -5.451e+00             244.424          -3.508e+00             248.133           3.001e+01     
   0.000          36.000           -1.361e+00          -5.265e+00             244.503          -3.631e+00             248.185           3.001e+01     
   0.000          37.000           -1.361e+00          -5.086e+00             244.579          -3.758e+00             248.239           3.001e+01     
   0.000          38.000           -1.361e+00          -4.913e+00             244.652          -3.890e+00             248.295           3.001e+01     
   0.000          39.000           -1.361e+00          -4.745e+00             244.722          -4.027e+00             248.352           3.001e+01     
   0.000          40.000           -1.361e+00          -4.584e+00             244.789          -4.169e+00             248.411           3.001e+01     
   0.000          41.000           -1.361e+00          -4.428e+00             244.855          -4.316e+00             248.472           3.001e+01     
   0.000          42.000           -1.361e+00          -4.277e+00             244.917          -4.468e+00             248.536           3.001e+01     
   0.000          43.000           -1.361e+00          -4.132e+00             244.978          -4.625e+00             248.602           3.001e+01     
   0.000          44.000           -1.361e+00          -3.991e+00             245.037          -4.788e+00             248.670           3.001e+01     
   0.000          45.000           -1.361e+00          -3.856e+00             245.094          -4.957e+00             248.740           3.001e+01     
   0.000          46.000           -1.361e+00          -3.725e+00             245.149          -5.132e+00             248.814           3.001e+01     
   0.000          47.000           -1.361e+00          -3.598e+00             245.203          -5.313e+00             248.891           3.001e+01     
   0.000          48.000           -1.361e+00          -3.476e+00             245.255          -5.500e+00             248.971           3.001e+01     
   0.000          49.000           -1.361e+00          -3.359e+00             245.305          -5.695e+00             249.055           3.001e+01     
   0.000          50.000           -1.361e+00          -3.245e+00             245.355          -5.896e+00             249.142           3.001e+01     
   0.000          51.000           -1.361e+00          -3.136e+00             245.403          -6.105e+00             249.234           3.001e+01     
   0.000          52.000           -1.361e+00          -3.030e+00             245.450          -6.322e+00             249.330           3.001e+01     
   0.000          53.000           -1.361e+00          -2.929e+00             245.495          -6.548e+00             249.432           3.001e+01     
   0.000          54.000           -1.361e+00          -2.831e+00             245.540          -6.781e+00             249.539           3.001e+01     
   0.000          55.000           -1.361e+00          -2.737e+00             245.584          -7.024e+00             249.652           3.001e+01     
   0.000          56.000           -1.361e+00          -2.646e+00             245.627          -7.277e+00             249.772           3.001e+01     
   0.000          57.000           -1.361e+00          -2.559e+00             245.669          -7.540e+00             249.899           3.001e+01     
   0.000          58.000           -1.361e+00          -2.476e+00             245.710          -7.814e+00             250.034           3.001e+01     
   0.000          59.000           -1.361e+00          -2.396e+00             245.750          -8.099e+00             250.178           3.001e+01     
   0.000          60.000           -1.361e+00          -2.319e+00             245.790          -8.397e+00             250.332           3.001e+01     
   0.000          61.000           -1.361e+00          -2.245e+00             245.829          -8.708e+00             250.497           3.001e+01     
   0.000          62.000           -1.361e+00          -2.175e+00             245.867          -9.033e+00             250.675           3.001e+01     
   0.000          63.000           -1.361e+00          -2.108e+00             245.905          -9.374e+00             250.867           3.001e+01     
   0.000          64.000           -1.361e+00          -2.044e+00             245.942          -9.731e+00             251.075           3.001e+01     
   0.000          65.000           -1.361e+00          -1.984e+00             245.979          -1.011e+01             251.301           3.001e+01     
   0.000          66.000           -1.361e+00          -1.926e+00             246.015          -1.050e+01             251.548           3.001e+01     
   0.000          67.000           -1.361e+00          -1.871e+00             246.051          -1.092e+01             251.820           3.001e+01     
   0.000          68.000           -1.361e+00          -1.819e+00             246.086          -1.136e+01             252.119           3.001e+01     
   0.000          69.000           -1.361e+00          -1.771e+00             246.121          -1.182e+01             252.452           3.001e+01     
   0.000          70.000           -1.361e+00          -1.725e+00             246.155          -1.232e+01             252.823           3.001e+01     
   0.000          71.000           -1.361e+00          -1.682e+00             246.189          -1.284e+01             253.240           3.001e+01     
   0.000          72.000           -1.361e+00          -1.641e+00             246.223          -1.340e+01             253.714           3.001e+01     
   0.000          73.000           -1.361e+00          -1.604e+00             246.257          -1.401e+01             254.255           3.001e+01     
   0.000          74.000           -1.361e+00          -1.569e+00             246.290          -1.466e+01             254.881           3.001e+01     
   0.000          75.000           -1.361e+00          -1.538e+00             246.323          -1.536e+01             255.612           3.001e+01     
   0.000          76.000           -1.361e+00          -1.508e+00             246.356          -1.613e+01             256.478           3.001e+01     
   0.000          77.000           -1.361e+00          -1.482e+00             246.388          -1.698e+01             257.521           3.001e+01     
   0.000          78.000           -1.361e+00          -1.458e+00             246.421          -1.791e+01             258.800           3.001e+01     
   0.000          79.000           -1.361e+00          -1.438e+00             246.453          -1.895e+01             260.407           3.001e+01     
   0.000          80.000           -1.361e+00          -1.419e+00             246.485          -2.013e+01             262.481           3.001e+01     
   0.000          81.000           -1.361e+00          -1.404e+00             246.517          -2.148e+01             265.256           3.001e+01     
   0.000          82.000           -1.361e+00          -1.391e+00             246.549          -2.304e+01             269.138           3.001e+01     
   0.000          83.000           -1.361e+00          -1.381e+00             246.580          -2.488e+01             274.889           3.001e+01     
   0.000          84.000           -1.361e+00          -1.373e+00             246.612          -2.704e+01             284.028           3.001e+01     
   0.000          85.000           -1.361e+00          -1.368e+00             246.644          -2.941e+01             299.545           3.001e+01     
   0.000          86.000           -1.361e+00          -1.366e+00             246.675          -3.120e+01             325.122           3.001e+01     
   0.000          87.000           -1.361e+00          -1.366e+00             246.707          -3.088e+01             355.877           3.001e+01     
   0.000          88.000           -1.361e+00          -1.369e+00             246.738          -2.880e+01              18.704           3.001e+01     
   0.000          89.000           -1.361e+00          -1.375e+00             246.770          -2.645e+01              32.175           3.001e+01     
   0.000          90.000           -1.361e+00          -1.383e+00             246.802          -2.437e+01              40.221           3.001e+01     
   0.000          91.000           -1.361e+00          -1.394e+00             246.833          -2.261e+01              45.382           3.001e+01     
   0.000          92.000           -1.361e+00          -1.407e+00             246.865          -2.111e+01              48.923           3.001e+01     
   0.000          93.000           -1.361e+00          -1.424e+00             246.897          -1.981e+01              51.486           3.001e+01     
   0.000          94.000           -1.361e+00          -1.443e+00             246.929          -1.867e+01              53.422           3.001e+01     
   0.000          95.000           -1.361e+00          -1.464e+00             246.961          -1.766e+01              54.932           3.001e+01     
   0.000          96.000           -1.361e+00          -1.489e+00             246.994          -1.675e+01              56.143           3.001e+01     
   0.000          97.000           -1.361e+00          -1.516e+00             247.026          -1.593e+01              57.136           3.001e+01     
   0.000          98.000           -1.361e+00          -1.545e+00             247.059          -1.518e+01              57.963           3.001e+01     
   0.000          99.000           -1.361e+00          -1.578e+00             247.092          -1.449e+01              58.665           3.001e+01     
   0.000         100.000           -1.361e+00          -1.613e+00             247.126          -1.385e+01              59.266           3.001e+01     
   0.000         101.000           -1.361e+00          -1.651e+00             247.159          -1.325e+01              59.789           3.001e+01     
   0.000         102.000           -1.361e+00          -1.692e+00             247.193          -1.270e+01              60.247           3.001e+01     
   0.000         103.000           -1.361e+00          -1.736e+00             247.227          -1.218e+01              60.651           3.001e+01     
   0.000         104.000           -1.361e+00          -1.783e+00             247.262          -1.170e+01              61.012           3.001e+01     
   0.000         105.000           -1.361e+00          -1.832e+00             247.297          -1.124e+01              61.335           3.001e+01     
   0.000         106.000           -1.361e+00          -1.885e+00             247.332          -1.081e+01              61.627           3.001e+01     
   0.000         107.000           -1.361e+00          -1.941e+00             247.368          -1.040e+01              61.892           3.001e+01     
   0.000         108.000           -1.361e+00          -1.999e+00             247.404          -1.001e+01              62.133           3.001e+01     
   0.000         109.000           -1.361e+00          -2.061e+00             247.441          -9.637e+00              62.355           3.001e+01     
   0.000         110.000           -1.361e+00          -2.125e+00             247.478          -9.284e+00              62.558           3.001e+01     
   0.000         111.000           -1.361e+00          -2.193e+00             247.516          -8.947e+00              62.746           3.001e+01     
   0.000         112.000           -1.361e+00          -2.264e+00             247.555          -8.626e+00              62.921           3.001e+01     
   0.000         113.000           -1.361e+00          -2.338e+00             247.594          -8.318e+00              63.083           3.001e+01     
   0.000         114.000           -1.361e+00          -2.416e+00             247.634          -8.024e+00              63.234           3.001e+01     
   0.000         115.000           -1.361e+00          -2.497e+00             247.675          -7.742e+00              63.376           3.001e+01     
   0.000         116.000           -1.361e+00          -2.581e+00             247.716          -7.471e+00              63.509           3.001e+01     
   0.000         117.000           -1.361e+00          -2.669e+00             247.758          -7.210e+00              63.634           3.001e+01     
   0.000         118.000           -1.361e+00          -2.761e+00             247.801          -6.960e+00              63.752           3.001e+01     
   0.000         119.000           -1.361e+00          -2.856e+00             247.845          -6.720e+00              63.863           3.001e+01     
   0.000         120.000           -1.361e+00          -2.955e+00             247.890          -6.488e+00              63.969           3.001e+01     
   0.000         121.000           -1.361e+00          -3.057e+00             247.936          -6.265e+00              64.069           3.001e+01     
   0.000         122.000           -1.361e+00          -3.164e+00             247.983          -6.051e+00              64.164           3.001e+01     
   0.000         123.000           -1.361e+00          -3.274e+00             248.032          -5.843e+00              64.255           3.001e+01     
   0.000         124.000           -1.361e+00          -3.389e+00             248.082          -5.644e+00              64.341           3.001e+01     
   0.000         125.000           -1.361e+00          -3.508e+00             248.133          -5.451e+00              64.424           3.001e+01     
   0.000         126.000           -1.361e+00          -3.631e+00             248.185          -5.265e+00              64.503           3.001e+01     
   0.000         127.000           -1.361e+00          -3.758e+00             248.239          -5.086e+00              64.579           3.001e+01     
   0.000         128.000           -1.361e+00          -3.890e+00             248.295          -4.913e+00              64.652           3.001e+01     
   0.000         129.000           -1.361e+00          -4.027e+00             248.352          -4.745e+00              64.722           3.001e+01     
   0.000         130.000           -1.361e+00          -4.169e+00             248.411          -4.584e+00              64.789           3.001e+01     
   0.000         131.000           -1.361e+00          -4.316e+00             248.472          -4.428e+00              64.855           3.001e+01     
   0.000         132.000           -1.361e+00          -4.468e+00             248.536          -4.277e+00              64.917           3.001e+01     
   0.000         133.000           -1.361e+00          -4.625e+00             248.602          -4.132e+00              64.978           3.001e+01     
   0.000         134.000           -1.361e+00          -4.788e+00             248.670          -3.991e+00              65.037           3.001e+01     
   0.000         135.000           -1.361e+00          -4.957e+00             248.740          -3.856e+00              65.094           3.001e+01     
   0.000         136.000           -1.361e+00          -5.132e+00             248.814          -3.725e+00              65.149           3.001e+01     
   0.000         137.000           -1.361e+00          -5.313e+00             248.891          -3.598e+00              65.203           3.001e+01     
   0.000         138.000           -1.361e+00          -5.500e+00             248.971          -3.476e+00              65.255           3.001e+01     
   0.000         139.000           -1.361e+00          -5.695e+00             249.055          -3.359e+00              65.305           3.001e+01     
   0.000         140.000           -1.361e+00          -5.896e+00             249.142          -3.245e+00              65.355           3.001e+01     
   0.000         141.000           -1.361e+00          -6.105e+00             249.234          -3.136e+00              65.403           3.001e+01     
   0.000         142.000           -1.361e+00          -6.322e+00             249.330          -3.030e+00              65.450           3.001e+01     
   0.000         143.000           -1.361e+00          -6.548e+00             249.432          -2.929e+00              65.495           3.001e+01     
   0.000         144.000           -1.361e+00          -6.781e+00             249.539          -2.831e+00              65.540           3.001e+01     
   0.000         145.000           -1.361e+00          -7.024e+00             249.652          -2.737e+00              65.584           3.001e+01     
   0.000         146.000           -1.361e+00          -7.277e+00             249.772          -2.646e+00              65.627           3.001e+01     
   0.000         147.000           -1.361e+00          -7.540e+00             249.899          -2.559e+00              65.669           3.001e+01     
   0.000         148.000           -1.361e+00          -7.814e+00             250.034          -2.476e+00              65.710           3.001e+01     
   0.000         149.000           -1.361e+00          -8.099e+00             250.178          -2.396e+00              65.750           3.001e+01     
   0.000         150.000           -1.361e+00          -8.397e+00             250.332          -2.319e+00              65.790           3.001e+01     
   0.000         151.000           -1.361e+00          -8.708e+00             250.497          -2.245e+00              65.829           3.001e+01     
   0.000         152.000           -1.361e+00          -9.033e+00             250.675          -2.175e+00              65.867           3.001e+01     
   0.000         153.000           -1.361e+00          -9.374e+00             250.867          -2.108e+00              65.905           3.001e+01     
   0.000         154.000           -1.361e+00          -9.731e+00             251.075          -2.044e+00              65.942           3.001e+01     
   0.000         155.000           -1.361e+00          -1.011e+01             251.301          -1.984e+00              65.979           3.001e+01     
   0.000         156.000           -1.361e+00          -1.050e+01             251.548          -1.926e+00              66.015           3.001e+01     
   0.000         157.000           -1.361e+00          -1.092e+01             251.820          -1.871e+00              66.051           3.001e+01     
   0.000         158.000           -1.361e+00          -1.136e+01             252.119          -1.819e+00              66.086           3.001e+01     
   0.000         159.000           -1.361e+00          -1.182e+01             252.452          -1.771e+00              66.121           3.001e+01     
   0.000         160.000           -1.361e+00          -1.232e+01             252.823          -1.725e+00              66.155           3.001e+01     
   0.000         161.000           -1.361e+00          -1.284e+01             253.240          -1.682e+00              66.189           3.001e+01     
   0.000         162.000           -1.361e+00          -1.340e+01             253.714          -1.641e+00              66.223           3.001e+01     
   0.000         163.000           -1.361e+00          -1.401e+01             254.255          -1.604e+00              66.257           3.001e+01     
   0.000         164.000           -1.361e+00          -1.466e+01             254.881          -1.569e+00              66.290           3.001e+01     
   0.000         165.000           -1.361e+00          -1.536e+01             255.612          -1.538e+00              66.323           3.001e+01     
   0.000         166.000           -1.361e+00          -1.613e+01             256.478          -1.508e+00              66.356           3.001e+01     
   0.000         167.000           -1.361e+00          -1.698e+01             257.521          -1.482e+00              66.388           3.001e+01     
   0.000         168.000           -1.361e+00          -1.791e+01             258.800          -1.458e+00              66.421           3.001e+01     
   0.000         169.000           -1.361e+00          -1.895e+01             260.407          -1.438e+00              66.453           3.001e+01     
   0.000         170.000           -1.361e+00          -2.013e+01             262.481          -1.419e+00              66.485           3.001e+01     
   0.000         171.000           -1.361e+00          -2.148e+01             265.256          -1.404e+00              66.517           3.001e+01     
   0.000         172.000           -1.361e+00          -2.304e+01             269.138          -1.391e+00              66.549           3.001e+01     
   0.000         173.000           -1.361e+00          -2.488e+01             274.889          -1.381e+00              66.580           3.001e+01     
   0.000         174.000           -1.361e+00          -2.704e+01             284.028          -1.373e+00              66.612           3.001e+01     
   0.000         175.000           -1.361e+00          -2.941e+01             299.545          -1.368e+00              66.644           3.001e+01     
   0.000         176.000           -1.361e+00          -3.120e+01             325.122          -1.366e+00              66.675           3.001e+01     
   0.000         177.000           -1.361e+00          -3.088e+01             355.877          -1.366e+00              66.707           3.001e+01     
   0.000         178.000           -1.361e+00          -2.880e+01              18.704          -1.369e+00              66.738           3.001e+01     
   0.000         179.000           -1.361e+00          -2.645e+01              32.175          -1.375e+00              66.770           3.001e+01     
   0.000         180.000           -1.361e+00          -2.437e+01              40.221          -1.383e+00              66.802           3.001e+01     
   0.000         181.000           -1.361e+00          -2.261e+01              45.382          -1.394e+00              66.833           3.001e+01     
   0.000         182.000           -1.361e+00          -2.111e+01              48.923          -1.407e+00              66.865           3.001e+01     
   0.000         183.000           -1.361e+00          -1.981e+01              51.486          -1.424e+00              66.897           3.001e+01     
   0.000         184.000           -1.361e+00          -1.867e+01              53.422          -1.443e+00              66.929           3.001e+01     
   0.000         185.000           -1.361e+00          -1.766e+01              54.932          -1.464e+00              66.961           3.001e+01     
   0.000         186.000           -1.361e+00          -1.675e+01              56.143          -1.489e+00              66.994           3.001e+01     
   0.000         187.000           -1.361e+00          -1.593e+01              57.136          -1.516e+00              67.026           3.001e+01     
   0.000         188.000           -1.361e+00          -1.518e+01              57.963          -1.545e+00              67.059           3.001e+01     
   0.000         189.000           -1.361e+00          -1.449e+01              58.665          -1.578e+00              67.092           3.001e+01     
   0.000         190.000           -1.361e+00          -1.385e+01              59.266          -1.613e+00              67.126           3.001e+01     
   0.000         191.000           -1.361e+00          -1.325e+01              59.789          -1.651e+00              67.159           3.001e+01     
   0.000         192.000           -1.361e+00          -1.270e+01              60.247          -1.692e+00              67.193           3.001e+01     
   0.000         193.000           -1.361e+00          -1.218e+01              60.651          -1.736e+00              67.227           3.001e+01     
   0.000         194.000           -1.361e+00          -1.170e+01              61.012          -1.783e+00              67.262           3.001e+01     
   0.000         195.000           -1.361e+00          -1.124e+01              61.335          -1.832e+00              67.297           3.001e+01     
   0.000         196.000           -1.361e+00          -1.081e+01              61.627          -1.885e+00              67.332           3.001e+01     
   0.000         197.000           -1.361e+00          -1.040e+01              61.892          -1.941e+00              67.368           3.001e+01     
   0.000         198.000           -1.361e+00          -1.001e+01              62.133          -1.999e+00              67.404           3.001e+01     
   0.000         199.000           -1.361e+00          -9.637e+00              62.355          -2.061e+00              67.441           3.001e+01     
   0.000         200.000           -1.361e+00          -9.284e+00              62.558          -2.125e+00              67.478           3.001e+01     
   0.000         201.000           -1.361e+00          -8.947e+00              62.746          -2.193e+00              67.516           3.001e+01     
   0.000         202.000           -1.361e+00          -8.626e+00              62.921          -2.264e+00              67.555           3.001e+01     
   0.000         203.000           -1.361e+00          -8.318e+00              63.083          -2.338e+00              67.594           3.001e+01     
   0.000         204.000           -1.361e+00          -8.024e+00              63.234          -2.416e+00              67.634           3.001e+01     
   0.000         205.000           -1.361e+00          -7.742e+00              63.376          -2.497e+00              67.675           3.001e+01     
   0.000         206.000           -1.361e+00          -7.471e+00              63.509          -2.581e+00              67.716           3.001e+01     
   0.000         207.000           -1.361e+00          -7.210e+00              63.634          -2.669e+00              67.758           3.001e+01     
   0.000         208.000           -1.361e+00          -6.960e+00              63.752          -2.761e+00              67.801           3.001e+01     
   0.000         209.000           -1.361e+00          -6.720e+00              63.863          -2.856e+00              67.845           3.001e+01     
   0.000         210.000           -1.361e+00          -6.488e+00              63.969          -2.955e+00              67.890           3.001e+01     
   0.000         211.000           -1.361e+00          -6.265e+00              64.069          -3.057e+00              67.936           3.001e+01     
   0.000         212.000           -1.361e+00          -6.051e+00              64.164          -3.164e+00              67.983           3.001e+01     
   0.000         213.000           -1.361e+00          -5.843e+00              64.255          -3.274e+00              68.032           3.001e+01     
   0.000         214.000           -1.361e+00          -5.644e+00              64.341          -3.389e+00              68.082           3.001e+01     
   0.000         215.000           -1.361e+00          -5.451e+00              64.424          -3.508e+00              68.133           3.001e+01     
   0.000         216.000           -1.361e+00          -5.265e+00              64.503          -3.631e+00              68.185           3.001e+01     
   0.000         217.000           -1.361e+00          -5.086e+00              64.579          -3.758e+00              68.239           3.001e+01     
   0.000         218.000           -1.361e+00          -4.913e+00              64.652          -3.890e+00              68.295           3.001e+01     
   0.000         219.000           -1.361e+00          -4.745e+00              64.722          -4.027e+00              68.352           3.001e+01     
   0.000         220.000           -1.361e+00          -4.584e+00              64.789          -4.169e+00              68.411           3.001e+01     
   0.000         221.000           -1.361e+00          -4.428e+00              64.855          -4.316e+00              68.472           3.001e+01     
   0.000         222.000           -1.361e+00          -4.277e+00              64.917          -4.468e+00              68.536           3.001e+01     
   0.000         223.000           -1.361e+00          -4.132e+00              64.978          -4.625e+00              68.602           3.001e+01     
   0.000         224.000           -1.361e+00          -3.991e+00              65.037          -4.788e+00              68.670           3.001e+01     
   0.000         225.000           -1.361e+00          -3.856e+00              65.094          -4.957e+00              68.740           3.001e+01     
   0.000         226.000           -1.361e+00          -3.725e+00              65.149          -5.132e+00              68.814           3.001e+01     
   0.000         227.000           -1.361e+00          -3.598e+00              65.203          -5.313e+00              68.891           3.001e+01     
   0.000         228.000           -1.361e+00          -3.476e+00              65.255          -5.500e+00              68.971           3.001e+01     
   0.000         229.000           -1.361e+00          -3.359e+00              65.305          -5.695e+00              69.055           3.001e+01     
   0.000         230.000           -1.361e+00          -3.245e+00              65.355          -5.896e+00              69.142           3.001e+01     
   0.000         231.000           -1.361e+00          -3.136e+00              65.403          -6.105e+00              69.234           3.001e+01     
   0.000         232.000           -1.361e+00          -3.030e+00              65.450          -6.322e+00              69.330           3.001e+01     
   0.000         233.000           -1.361e+00          -2.929e+00              65.495          -6.548e+00              69.432           3.001e+01     
   0.000         234.000           -1.361e+00          -2.831e+00              65.540          -6.781e+00              69.539           3.001e+01     
   0.000         235.000           -1.361e+00          -2.737e+00              65.584          -7.024e+00              69.652           3.001e+01     
   0.000         236.000           -1.361e+00          -2.646e+00              65.627          -7.277e+00              69.772           3.001e+01     
   0.000         237.000           -1.361e+00          -2.559e+00              65.669          -7.540e+00              69.899           3.001e+01     
   0.000         238.000           -1.361e+00          -2.476e+00              65.710          -7.814e+00              70.034           3.001e+01     
   0.000         239.000           -1.361e+00          -2.396e+00              65.750          -8.099e+00              70.178           3.001e+01     
   0.000         240.000           -1.361e+00          -2.319e+00              65.790          -8.397e+00              70.332           3.001e+01     
   0.000         241.000           -1.361e+00          -2.245e+00              65.829          -8.708e+00              70.497           3.001e+01     
   0.000         242.000           -1.361e+00          -2.175e+00              65.867          -9.033e+00              70.675           3.001e+01     
   0.000         243.000           -1.361e+00          -2.108e+00              65.905          -9.374e+00              70.867           3.001e+01     
   0.000         244.000           -1.361e+00          -2.044e+00              65.942          -9.731e+00              71.075           3.001e+01     
   0.000         245.000           -1.361e+00          -1.984e+00              65.979          -1.011e+01              71.301           3.001e+01     
   0.000         246.000           -1.361e+00          -1.926e+00              66.015          -1.050e+01              71.548           3.001e+01     
   0.000         247.000           -1.361e+00          -1.871e+00              66.051          -1.092e+01              71.820           3.001e+01     
   0.000         248.000           -1.361e+00          -1.819e+00              66.086          -1.136e+01              72.119           3.001e+01     
   0.000         249.000           -1.361e+00          -1.771e+00              66.121          -1.182e+01              72.452           3.001e+01     
   0.000         250.000           -1.361e+00          -1.725e+00              66.155          -1.232e+01              72.823           3.001e+01     
   0.000         251.000           -1.361e+00          -1.682e+00              66.189          -1.284e+01              73.240           3.001e+01     
   0.000         252.000           -1.361e+00          -1.641e+00              66.223          -1.340e+01              73.714           3.001e+01     
   0.000         253.000           -1.361e+00          -1.604e+00              66.257          -1.401e+01              74.255           3.001e+01     
   0.000         254.000           -1.361e+00          -1.569e+00              66.290          -1.466e+01              74.881           3.001e+01     
   0.000         255.000           -1.361e+00          -1.538e+00              66.323          -1.536e+01              75.612           3.001e+01     
   0.000         256.000           -1.361e+00          -1.508e+00              66.356          -1.613e+01              76.478           3.001e+01     
   0.000         257.000           -1.361e+00          -1.482e+00              66.388          -1.698e+01              77.521           3.001e+01     
   0.000         258.000           -1.361e+00          -1.458e+00              66.421          -1.791e+01              78.800           3.001e+01     
   0.000         259.000           -1.361e+00          -1.438e+00              66.453          -1.895e+01              80.407           3.001e+01     
   0.000         260.000           -1.361e+00          -1.419e+00              66.485          -2.013e+01              82.481           3.001e+01     
   0.000         261.000           -1.361e+00          -1.404e+00              66.517          -2.148e+01              85.256           3.001e+01     
   0.000         262.000           -1.361e+00          -1.391e+00              66.549          -2.304e+01              89.138           3.001e+01     
   0.000         263.000           -1.361e+00          -1.381e+00              66.580          -2.488e+01              94.889           3.001e+01     
   0.000         264.000           -1.361e+00          -1.373e+00              66.612          -2.704e+01             104.028           3.001e+01     
   0.000         265.000           -1.361e+00          -1.368e+00              66.644          -2.941e+01             119.545           3.001e+01     
   0.000         266.000           -1.361e+00          -1.366e+00              66.675          -3.120e+01             145.122           3.001e+01     
   0.000         267.000           -1.361e+00          -1.366e+00              66.707          -3.088e+01             175.877           3.001e+01     
   0.000         268.000           -1.361e+00          -1.369e+00              66.738          -2.880e+01             198.704           3.001e+01     
   0.000         269.000           -1.361e+00          -1.375e+00              66.770          -2.645e+01             212.175           3.001e+01     
   0.000         270.000           -1.361e+00          -1.383e+00              66.802          -2.437e+01             220.221           3.001e+01     
   0.000         271.000           -1.361e+00          -1.394e+00              66.833          -2.261e+01             225.382           3.001e+01     
   0.000         272.000           -1.361e+00          -1.407e+00              66.865          -2.111e+01             228.923           3.001e+01     
   0.000         273.000           -1.361e+00          -1.424e+00              66.897          -1.981e+01             231.486           3.001e+01     
   0.000         274.000           -1.361e+00          -1.443e+00              66.929          -1.867e+01             233.422           3.001e+01     
   0.000         275.000           -1.361e+00          -1.464e+00              66.961          -1.766e+01             234.932           3.001e+01     
   0.000         276.000           -1.361e+00          -1.489e+00              66.994          -1.675e+01             236.143           3.001e+01     
   0.000         277.000           -1.361e+00          -1.516e+00              67.026          -1.593e+01             237.136           3.001e+01     
   0.000         278.000           -1.361e+00          -1.545e+00              67.059          -1.518e+01             237.963           3.001e+01     
   0.000         279.000           -1.361e+00          -1.578e+00              67.092          -1.449e+01             238.665           3.001e+01     
   0.000         280.000           -1.361e+00          -1.613e+00              67.126          -1.385e+01             239.266           3.001e+01     
   0.000         281.000           -1.361e+00          -1.651e+00              67.159          -1.325e+01             239.789           3.001e+01     
   0.000         282.000           -1.361e+00          -1.692e+00              67.193          -1.270e+01             240.247           3.001e+01     
   0.000         283.000           -1.361e+00          -1.736e+00              67.227          -1.218e+01             240.651           3.001e+01     
   0.000         284.000           -1.361e+00          -1.783e+00              67.262          -1.170e+01             241.012           3.001e+01     
   0.000         285.000           -1.361e+00          -1.832e+00              67.297          -1.124e+01             241.335           3.001e+01     
   0.000         286.000           -1.361e+00          -1.885e+00              67.332          -1.081e+01             241.627           3.001e+01     
   0.000         287.000           -1.361e+00          -1.941e+00              67.368          -1.040e+01             241.892           3.001e+01     
   0.000         288.000           -1.361e+00          -1.999e+00              67.404          -1.001e+01             242.133           3.001e+01     
   0.000         289.000           -1.361e+00          -2.061e+00              67.441          -9.637e+00             242.355           3.001e+01     
   0.000         290.000           -1.361e+00          -2.125e+00              67.478          -9.284e+00             242.558           3.001e+01     
   0.000         291.000           -1.361e+00          -2.193e+00              67.516          -8.947e+00             242.746           3.001e+01     
   0.000         292.000           -1.361e+00          -2.264e+00              67.555          -8.626e+00             242.921           3.001e+01     
   0.000         293.000           -1.361e+00          -2.338e+00              67.594          -8.318e+00             243.083           3.001e+01     
   0.000         294.000           -1.361e+00          -2.416e+00              67.634          -8.024e+00             243.234           3.001e+01     
   0.000         295.000           -1.361e+00          -2.497e+00              67.675          -7.742e+00             243.376           3.001e+01     
   0.000         296.000           -1.361e+00          -2.581e+00              67.716          -7.471e+00             243.509           3.001e+01     
   0.000         297.000           -1.361e+00          -2.669e+00              67.758          -7.210e+00             243.634           3.001e+01     
   0.000         298.000           -1.361e+00          -2.761e+00              67.801          -6.960e+00             243.752           3.001e+01     
   0.000         299.000           -1.361e+00          -2.856e+00              67.845          -6.720e+00             243.863           3.001e+01     
   0.000         300.000           -1.361e+00          -2.955e+00              67.890          -6.488e+00             243.969           3.001e+01     
   0.000         301.000           -1.361e+00          -3.057e+00              67.936          -6.265e+00             244.069           3.001e+01     
   0.000         302.000           -1.361e+00          -3.164e+00              67.983          -6.051e+00             244.164           3.001e+01     
   0.000         303.000           -1.361e+00          -3.274e+00              68.032          -5.843e+00             244.255           3.001e+01     
   0.000         304.000           -1.361e+00          -3.389e+00              68.082          -5.644e+00             244.341           3.001e+01     
   0.000         305.000           -1.361e+00          -3.508e+00              68.133          -5.451e+00             244.424           3.001e+01     
   0.000         306.000           -1.361e+00          -3.631e+00              68.185          -5.265e+00             244.503           3.001e+01     
   0.000         307.000           -1.361e+00          -3.758e+00              68.239          -5.086e+00             244.579           3.001e+01     
   0.000         308.000           -1.361e+00          -3.890e+00              68.295          -4.913e+00             244.652           3.001e+01     
   0.000         309.000           -1.361e+00          -4.027e+00              68.352          -4.745e+00             244.722           3.001e+01     
   0.000         310.000           -1.361e+00          -4.169e+00              68.411          -4.584e+00             244.789           3.001e+01     
   0.000         311.000           -1.361e+00          -4.316e+00              68.472          -4.428e+00             244.855           3.001e+01     
   0.000         312.000           -1.361e+00          -4.468e+00              68.536          -4.277e+00             244.917           3.001e+01     
   0.000         313.000           -1.361e+00          -4.625e+00              68.602          -4.132e+00             244.978           3.001e+01     
   0.000         314.000           -1.361e+00          -4.788e+00              68.670          -3.991e+00             245.037           3.001e+01     
   0.000         315.000           -1.361e+00          -4.957e+00              68.740          -3.856e+00             245.094           3.001e+01     
   0.000         316.000           -1.361e+00          -5.132e+00              68.814          -3.725e+00             245.149           3.001e+01     
   0.000         317.000           -1.361e+00          -5.313e+00              68.891          -3.598e+00             245.203           3.001e+01     
   0.000         318.000           -1.361e+00          -5.500e+00              68.971          -3.476e+00             245.255           3.001e+01     
   0.000         319.000           -1.361e+00          -5.695e+00              69.055          -3.359e+00             245.305           3.001e+01     
   0.000         320.000           -1.361e+00          -5.896e+00              69.142          -3.245e+00             245.355           3.001e+01     
   0.000         321.000           -1.361e+00          -6.105e+00              69.234          -3.136e+00             245.403           3.001e+01     
   0.000         322.000           -1.361e+00          -6.322e+00              69.330          -3.030e+00             245.450           3.001e+01     
   0.000         323.000           -1.361e+00          -6.548e+00              69.432          -2.929e+00             245.495           3.001e+01     
   0.000         324.000           -1.361e+00          -6.781e+00              69.539          -2.831e+00             245.540           3.001e+01     
   0.000         325.000           -1.361e+00          -7.024e+00              69.652          -2.737e+00             245.584           3.001e+01     
   0.000         326.000           -1.361e+00          -7.277e+00              69.772          -2.646e+00             245.627           3.001e+01     
   0.000         327.000           -1.361e+00          -7.540e+00              69.899          -2.559e+00             245.669           3.001e+01     
   0.000         328.000           -1.361e+00          -7.814e+00              70.034          -2.476e+00             245.710           3.001e+01     
   0.000         329.000           -1.361e+00          -8.099e+00              70.178          -2.396e+00             245.750           3.001e+01     
   0.000         330.000           -1.361e+00          -8.397e+00              70.332          -2.319e+00             245.790           3.001e+01     
   0.000         331.000           -1.361e+00          -8.708e+00              70.497          -2.245e+00             245.829           3.001e+01     
   0.000         332.000           -1.361e+00          -9.033e+00              70.675          -2.175e+00             245.867           3.001e+01     
   0.000         333.000           -1.361e+00          -9.374e+00              70.867          -2.108e+00             245.905           3.001e+01     
   0.000         334.000           -1.361e+00          -9.731e+00              71.075          -2.044e+00             245.942           3.001e+01     
   0.000         335.000           -1.361e+00          -1.011e+01              71.301          -1.984e+00             245.979           3.001e+01     
   0.000         336.000           -1.361e+00          -1.050e+01              71.548          -1.926e+00             246.015           3.001e+01     
   0.000         337.000           -1.361e+00          -1.092e+01              71.820          -1.871e+00             246.051           3.001e+01     
   0.000         338.000           -1.361e+00          -1.136e+01              72.119          -1.819e+00             246.086           3.001e+01     
   0.000         339.000           -1.361e+00          -1.182e+01              72.452          -1.771e+00             246.121           3.001e+01     
   0.000         340.000           -1.361e+00          -1.232e+01              72.823          -1.725e+00             246.155           3.001e+01     
   0.000         341.000           -1.361e+00          -1.284e+01              73.240          -1.682e+00             246.189           3.001e+01     
   0.000         342.000           -1.361e+00          -1.340e+01              73.714          -1.641e+00             246.223           3.001e+01     
   0.000         343.000           -1.361e+00          -1.401e+01              74.255          -1.604e+00             246.257           3.001e+01     
   0.000         344.000           -1.361e+00          -1.466e+01              74.881          -1.569e+00             246.290           3.001e+01     
   0.000         345.000           -1.361e+00          -1.536e+01              75.612          -1.538e+00             246.323           3.001e+01     
   0.000         346.000           -1.361e+00          -1.613e+01              76.478          -1.508e+00             246.356           3.001e+01     
   0.000         347.000           -1.361e+00          -1.698e+01              77.521          -1.482e+00             246.388           3.001e+01     
   0.000         348.000           -1.361e+00          -1.791e+01              78.800          -1.458e+00             246.421           3.001e+01     
   0.000         349.000           -1.361e+00          -1.895e+01              80.407          -1.438e+00             246.453           3.001e+01     
   0.000         350.000           -1.361e+00          -2.013e+01              82.481          -1.419e+00             246.485           3.001e+01     
   0.000         351.000           -1.361e+00          -2.148e+01              85.256          -1.404e+00             246.517           3.001e+01     
   0.000         352.000           -1.361e+00          -2.304e+01              89.138          -1.391e+00             246.549           3.001e+01     
   0.000         353.000           -1.361e+00          -2.488e+01              94.889          -1.381e+00             246.580           3.001e+01     
   0.000         354.000           -1.361e+00          -2.704e+01             104.028          -1.373e+00             246.612           3.001e+01     
   0.000         355.000           -1.361e+00          -2.941e+01             119.545          -1.368e+00             246.644           3.001e+01     
   0.000         356.000           -1.361e+00          -3.120e+01             145.122          -1.366e+00             246.675           3.001e+01     
   0.000         357.000           -1.361e+00          -3.088e+01             175.877          -1.366e+00             246.707           3.001e+01     
   0.000         358.000           -1.361e+00          -2.880e+01             198.704          -1.369e+00             246.738           3.001e+01     
   0.000         359.000           -1.361e+00          -2.645e+01             212.175          -1.375e+00             246.770           3.001e+01     
