Theta [deg.]  Phi   [deg.]  Abs(Dir.)[dBi   ]   Abs(Theta)[dBi   ]  Phase(Theta)[deg.]  Abs(Phi  )[dBi   ]  Phase(Phi  )[deg.]  Ax.Ratio[dB    ]    
------------------------------------------------------------------------------------------------------------------------------------------------------
  90.000           0.000           -3.344e+00          -2.954e+01               9.513          -3.355e+00             211.832           3.462e+01     
  90.000           1.000           -3.188e+00          -2.945e+01               9.024          -3.198e+00             213.118           3.405e+01     
  90.000           2.000           -3.029e+00          -2.937e+01               8.547          -3.039e+00             214.379           3.356e+01     
  90.000           3.000           -2.869e+00          -2.929e+01               8.081          -2.879e+00             215.614           3.313e+01     
  90.000           4.000           -2.707e+00          -2.922e+01               7.624          -2.717e+00             216.819           3.275e+01     
  90.000           5.000           -2.546e+00          -2.915e+01               7.176          -2.555e+00             217.995           3.242e+01     
  90.000           6.000           -2.384e+00          -2.909e+01               6.733          -2.393e+00             219.139           3.213e+01     
  90.000           7.000           -2.222e+00          -2.904e+01               6.295          -2.231e+00             220.251           3.188e+01     
  90.000           8.000           -2.061e+00          -2.899e+01               5.858          -2.070e+00             221.331           3.166e+01     
  90.000           9.000           -1.902e+00          -2.894e+01               5.423          -1.910e+00             222.378           3.146e+01     
  90.000          10.000           -1.744e+00          -2.891e+01               4.988          -1.752e+00             223.393           3.130e+01     
  90.000          11.000           -1.588e+00          -2.887e+01               4.550          -1.597e+00             224.375           3.116e+01     
  90.000          12.000           -1.435e+00          -2.884e+01               4.109          -1.443e+00             225.326           3.103e+01     
  90.000          13.000           -1.285e+00          -2.882e+01               3.664          -1.293e+00             226.245           3.093e+01     
  90.000          14.000           -1.138e+00          -2.880e+01               3.213          -1.146e+00             227.134           3.084e+01     
  90.000          15.000           -9.950e-01          -2.878e+01               2.754          -1.002e+00             227.993           3.076e+01     
  90.000          16.000           -8.555e-01          -2.877e+01               2.288          -8.625e-01             228.824           3.070e+01     
  90.000          17.000           -7.202e-01          -2.876e+01               1.813          -7.270e-01             229.627           3.064e+01     
  90.000          18.000           -5.893e-01          -2.875e+01               1.328          -5.959e-01             230.403           3.060e+01     
  90.000          19.000           -4.630e-01          -2.875e+01               0.832          -4.694e-01             231.154           3.056e+01     
  90.000          20.000           -3.416e-01          -2.875e+01               0.325          -3.478e-01             231.880           3.053e+01     
  90.000          21.000           -2.252e-01          -2.875e+01             359.806          -2.313e-01             232.584           3.050e+01     
  90.000          22.000           -1.140e-01          -2.875e+01             359.274          -1.200e-01             233.265           3.048e+01     
  90.000          23.000           -8.290e-03          -2.876e+01             358.728          -1.409e-02             233.926           3.046e+01     
  90.000          24.000            9.192e-02          -2.876e+01             358.169           8.626e-02             234.567           3.044e+01     
  90.000          25.000            1.864e-01          -2.877e+01             357.597           1.809e-01             235.190           3.043e+01     
  90.000          26.000            2.752e-01          -2.878e+01             357.010           2.698e-01             235.795           3.041e+01     
  90.000          27.000            3.579e-01          -2.879e+01             356.410           3.527e-01             236.385           3.040e+01     
  90.000          28.000            4.347e-01          -2.880e+01             355.796           4.295e-01             236.959           3.038e+01     
  90.000          29.000            5.053e-01          -2.881e+01             355.168           5.002e-01             237.519           3.036e+01     
  90.000          30.000            5.697e-01          -2.881e+01             354.527           5.647e-01             238.067           3.034e+01     
  90.000          31.000            6.278e-01          -2.882e+01             353.874           6.229e-01             238.603           3.032e+01     
  90.000          32.000            6.795e-01          -2.883e+01             353.210           6.747e-01             239.128           3.030e+01     
  90.000          33.000            7.248e-01          -2.883e+01             352.534           7.199e-01             239.644           3.027e+01     
  90.000          34.000            7.635e-01          -2.884e+01             351.849           7.587e-01             240.151           3.024e+01     
  90.000          35.000            7.956e-01          -2.884e+01             351.155           7.908e-01             240.650           3.020e+01     
  90.000          36.000            8.210e-01          -2.884e+01             350.454           8.163e-01             241.142           3.016e+01     
  90.000          37.000            8.396e-01          -2.884e+01             349.746           8.350e-01             241.629           3.011e+01     
  90.000          38.000            8.515e-01          -2.883e+01             349.035           8.468e-01             242.110           3.006e+01     
  90.000          39.000            8.564e-01          -2.882e+01             348.321           8.518e-01             242.587           3.001e+01     
  90.000          40.000            8.545e-01          -2.881e+01             347.606           8.498e-01             243.061           2.994e+01     
  90.000          41.000            8.454e-01          -2.880e+01             346.893           8.407e-01             243.533           2.988e+01     
  90.000          42.000            8.293e-01          -2.878e+01             346.182           8.245e-01             244.003           2.980e+01     
  90.000          43.000            8.059e-01          -2.876e+01             345.476           8.011e-01             244.473           2.972e+01     
  90.000          44.000            7.753e-01          -2.873e+01             344.777           7.705e-01             244.942           2.963e+01     
  90.000          45.000            7.373e-01          -2.871e+01             344.095           7.323e-01             245.413           2.954e+01     
  90.000          46.000            6.918e-01          -2.868e+01             343.417           6.868e-01             245.885           2.944e+01     
  90.000          47.000            6.388e-01          -2.865e+01             342.751           6.336e-01             246.360           2.933e+01     
  90.000          48.000            5.780e-01          -2.861e+01             342.100           5.728e-01             246.839           2.922e+01     
  90.000          49.000            5.095e-01          -2.857e+01             341.465           5.041e-01             247.322           2.910e+01     
  90.000          50.000            4.330e-01          -2.853e+01             340.849           4.274e-01             247.810           2.897e+01     
  90.000          51.000            3.483e-01          -2.848e+01             340.253           3.426e-01             248.305           2.883e+01     
  90.000          52.000            2.555e-01          -2.843e+01             339.679           2.496e-01             248.806           2.868e+01     
  90.000          53.000            1.541e-01          -2.838e+01             339.127           1.480e-01             249.316           2.853e+01     
  90.000          54.000            4.416e-02          -2.833e+01             338.600           3.784e-02             249.834           2.837e+01     
  90.000          55.000           -7.465e-02          -2.827e+01             338.099          -8.123e-02             250.363           2.820e+01     
  90.000          56.000           -2.025e-01          -2.822e+01             337.624          -2.094e-01             250.904           2.802e+01     
  90.000          57.000           -3.397e-01          -2.816e+01             337.177          -3.469e-01             251.457           2.784e+01     
  90.000          58.000           -4.866e-01          -2.810e+01             336.757          -4.941e-01             252.024           2.764e+01     
  90.000          59.000           -6.433e-01          -2.804e+01             336.367          -6.512e-01             252.606           2.744e+01     
  90.000          60.000           -8.102e-01          -2.798e+01             336.007          -8.186e-01             253.205           2.723e+01     
  90.000          61.000           -9.878e-01          -2.792e+01             335.676          -9.966e-01             253.822           2.701e+01     
  90.000          62.000           -1.176e+00          -2.785e+01             335.375          -1.186e+00             254.460           2.678e+01     
  90.000          63.000           -1.376e+00          -2.779e+01             335.105          -1.386e+00             255.120           2.654e+01     
  90.000          64.000           -1.588e+00          -2.773e+01             334.865          -1.599e+00             255.805           2.629e+01     
  90.000          65.000           -1.813e+00          -2.767e+01             334.656          -1.824e+00             256.517           2.603e+01     
  90.000          66.000           -2.050e+00          -2.761e+01             334.477          -2.062e+00             257.259           2.576e+01     
  90.000          67.000           -2.301e+00          -2.755e+01             334.328          -2.314e+00             258.035           2.548e+01     
  90.000          68.000           -2.567e+00          -2.749e+01             334.210          -2.581e+00             258.847           2.519e+01     
  90.000          69.000           -2.848e+00          -2.743e+01             334.121          -2.863e+00             259.701           2.489e+01     
  90.000          70.000           -3.145e+00          -2.737e+01             334.062          -3.162e+00             260.602           2.458e+01     
  90.000          71.000           -3.459e+00          -2.731e+01             334.031          -3.477e+00             261.554           2.425e+01     
  90.000          72.000           -3.792e+00          -2.726e+01             334.030          -3.811e+00             262.565           2.392e+01     
  90.000          73.000           -4.144e+00          -2.721e+01             334.057          -4.165e+00             263.644           2.357e+01     
  90.000          74.000           -4.517e+00          -2.716e+01             334.111          -4.541e+00             264.798           2.320e+01     
  90.000          75.000           -4.912e+00          -2.711e+01             334.193          -4.938e+00             266.041           2.283e+01     
  90.000          76.000           -5.332e+00          -2.707e+01             334.302          -5.361e+00             267.385           2.244e+01     
  90.000          77.000           -5.777e+00          -2.702e+01             334.438          -5.810e+00             268.848           2.204e+01     
  90.000          78.000           -6.251e+00          -2.698e+01             334.600          -6.287e+00             270.449           2.162e+01     
  90.000          79.000           -6.754e+00          -2.694e+01             334.787          -6.796e+00             272.216           2.120e+01     
  90.000          80.000           -7.290e+00          -2.691e+01             334.999          -7.338e+00             274.180           2.077e+01     
  90.000          81.000           -7.862e+00          -2.688e+01             335.236          -7.917e+00             276.381           2.034e+01     
  90.000          82.000           -8.470e+00          -2.685e+01             335.498          -8.534e+00             278.872           1.992e+01     
  90.000          83.000           -9.117e+00          -2.682e+01             335.783          -9.192e+00             281.719           1.952e+01     
  90.000          84.000           -9.804e+00          -2.680e+01             336.092          -9.892e+00             285.006           1.916e+01     
  90.000          85.000           -1.053e+01          -2.678e+01             336.424          -1.063e+01             288.845           1.888e+01     
  90.000          86.000           -1.129e+01          -2.677e+01             336.778          -1.141e+01             293.373           1.875e+01     
  90.000          87.000           -1.207e+01          -2.675e+01             337.156          -1.222e+01             298.762           1.886e+01     
  90.000          88.000           -1.284e+01          -2.674e+01             337.555          -1.302e+01             305.209           1.942e+01     
  90.000          89.000           -1.358e+01          -2.674e+01             337.977          -1.379e+01             312.907           2.076e+01     
  90.000          90.000           -1.421e+01          -2.674e+01             338.420          -1.446e+01             321.974           2.370e+01     
  90.000          91.000           -1.466e+01          -2.674e+01             338.885          -1.494e+01             332.335           3.120e+01     
  90.000          92.000           -1.487e+01          -2.674e+01             339.371          -1.516e+01             343.596           3.482e+01     
  90.000          93.000           -1.478e+01          -2.675e+01             339.879          -1.506e+01             355.064           2.386e+01     
  90.000          94.000           -1.440e+01          -2.676e+01             340.408          -1.466e+01               5.966           1.983e+01     
  90.000          95.000           -1.382e+01          -2.678e+01             340.958          -1.404e+01              15.741           1.793e+01     
  90.000          96.000           -1.309e+01          -2.680e+01             341.529          -1.327e+01              24.163           1.712e+01     
  90.000          97.000           -1.229e+01          -2.682e+01             342.122          -1.244e+01              31.268           1.695e+01     
  90.000          98.000           -1.146e+01          -2.685e+01             342.736          -1.159e+01              37.223           1.714e+01     
  90.000          99.000           -1.065e+01          -2.688e+01             343.371          -1.076e+01              42.229           1.753e+01     
  90.000         100.000           -9.871e+00          -2.692e+01             344.027          -9.958e+00              46.472           1.804e+01     
  90.000         101.000           -9.124e+00          -2.696e+01             344.706          -9.196e+00              50.107           1.861e+01     
  90.000         102.000           -8.416e+00          -2.700e+01             345.406          -8.476e+00              53.259           1.921e+01     
  90.000         103.000           -7.746e+00          -2.705e+01             346.128          -7.797e+00              56.024           1.981e+01     
  90.000         104.000           -7.114e+00          -2.710e+01             346.873          -7.158e+00              58.477           2.040e+01     
  90.000         105.000           -6.519e+00          -2.715e+01             347.640          -6.556e+00              60.678           2.099e+01     
  90.000         106.000           -5.956e+00          -2.721e+01             348.431          -5.989e+00              62.671           2.156e+01     
  90.000         107.000           -5.424e+00          -2.727e+01             349.245          -5.453e+00              64.494           2.211e+01     
  90.000         108.000           -4.921e+00          -2.734e+01             350.083          -4.946e+00              66.174           2.265e+01     
  90.000         109.000           -4.445e+00          -2.741e+01             350.946          -4.467e+00              67.735           2.317e+01     
  90.000         110.000           -3.993e+00          -2.748e+01             351.834          -4.013e+00              69.195           2.368e+01     
  90.000         111.000           -3.564e+00          -2.755e+01             352.748          -3.581e+00              70.569           2.417e+01     
  90.000         112.000           -3.155e+00          -2.763e+01             353.688          -3.171e+00              71.869           2.465e+01     
  90.000         113.000           -2.766e+00          -2.772e+01             354.655          -2.780e+00              73.107           2.511e+01     
  90.000         114.000           -2.396e+00          -2.780e+01             355.649          -2.408e+00              74.290           2.557e+01     
  90.000         115.000           -2.042e+00          -2.789e+01             356.672          -2.053e+00              75.426           2.601e+01     
  90.000         116.000           -1.704e+00          -2.798e+01             357.723          -1.715e+00              76.521           2.643e+01     
  90.000         117.000           -1.381e+00          -2.808e+01             358.805          -1.391e+00              77.579           2.685e+01     
  90.000         118.000           -1.072e+00          -2.817e+01             359.917          -1.081e+00              78.605           2.726e+01     
  90.000         119.000           -7.766e-01          -2.827e+01               1.061          -7.843e-01              79.604           2.766e+01     
  90.000         120.000           -4.932e-01          -2.838e+01               2.236          -5.003e-01              80.577           2.806e+01     
  90.000         121.000           -2.217e-01          -2.848e+01               3.445          -2.282e-01              81.529           2.844e+01     
  90.000         122.000            3.864e-02          -2.859e+01               4.688           3.267e-02              82.461           2.882e+01     
  90.000         123.000            2.883e-01          -2.869e+01               5.965           2.829e-01              83.375           2.919e+01     
  90.000         124.000            5.279e-01          -2.880e+01               7.277           5.228e-01              84.274           2.955e+01     
  90.000         125.000            7.578e-01          -2.891e+01               8.625           7.531e-01              85.159           2.991e+01     
  90.000         126.000            9.784e-01          -2.903e+01              10.010           9.741e-01              86.032           3.026e+01     
  90.000         127.000            1.190e+00          -2.914e+01              11.432           1.186e+00              86.893           3.061e+01     
  90.000         128.000            1.393e+00          -2.925e+01              12.891           1.390e+00              87.743           3.095e+01     
  90.000         129.000            1.588e+00          -2.936e+01              14.388           1.585e+00              88.585           3.128e+01     
  90.000         130.000            1.776e+00          -2.947e+01              15.923           1.772e+00              89.418           3.161e+01     
  90.000         131.000            1.955e+00          -2.958e+01              17.496           1.952e+00              90.244           3.194e+01     
  90.000         132.000            2.127e+00          -2.969e+01              19.107           2.124e+00              91.062           3.226e+01     
  90.000         133.000            2.292e+00          -2.980e+01              20.755           2.290e+00              91.874           3.257e+01     
  90.000         134.000            2.450e+00          -2.991e+01              22.441           2.448e+00              92.681           3.288e+01     
  90.000         135.000            2.602e+00          -3.001e+01              24.162           2.599e+00              93.482           3.319e+01     
  90.000         136.000            2.747e+00          -3.011e+01              25.909           2.744e+00              94.277           3.349e+01     
  90.000         137.000            2.885e+00          -3.020e+01              27.699           2.883e+00              95.068           3.378e+01     
  90.000         138.000            3.017e+00          -3.030e+01              29.521           3.015e+00              95.855           3.407e+01     
  90.000         139.000            3.143e+00          -3.038e+01              31.373           3.141e+00              96.638           3.436e+01     
  90.000         140.000            3.264e+00          -3.047e+01              33.253           3.262e+00              97.417           3.464e+01     
  90.000         141.000            3.378e+00          -3.054e+01              35.158           3.376e+00              98.193           3.492e+01     
  90.000         142.000            3.487e+00          -3.061e+01              37.085           3.485e+00              98.965           3.519e+01     
  90.000         143.000            3.590e+00          -3.068e+01              39.032           3.588e+00              99.733           3.546e+01     
  90.000         144.000            3.688e+00          -3.074e+01              40.995           3.686e+00             100.499           3.572e+01     
  90.000         145.000            3.780e+00          -3.079e+01              42.971           3.779e+00             101.261           3.598e+01     
  90.000         146.000            3.867e+00          -3.084e+01              44.955           3.866e+00             102.020           3.623e+01     
  90.000         147.000            3.949e+00          -3.088e+01              46.945           3.948e+00             102.776           3.647e+01     
  90.000         148.000            4.026e+00          -3.091e+01              48.936           4.024e+00             103.529           3.671e+01     
  90.000         149.000            4.097e+00          -3.093e+01              50.925           4.096e+00             104.279           3.694e+01     
  90.000         150.000            4.164e+00          -3.095e+01              52.907           4.162e+00             105.026           3.717e+01     
  90.000         151.000            4.225e+00          -3.096e+01              54.879           4.224e+00             105.770           3.739e+01     
  90.000         152.000            4.282e+00          -3.097e+01              56.837           4.281e+00             106.511           3.761e+01     
  90.000         153.000            4.334e+00          -3.096e+01              58.779           4.333e+00             107.249           3.781e+01     
  90.000         154.000            4.381e+00          -3.096e+01              60.700           4.380e+00             107.984           3.801e+01     
  90.000         155.000            4.423e+00          -3.094e+01              62.597           4.422e+00             108.715           3.821e+01     
  90.000         156.000            4.461e+00          -3.092e+01              64.469           4.459e+00             109.443           3.840e+01     
  90.000         157.000            4.493e+00          -3.090e+01              66.313           4.492e+00             110.167           3.858e+01     
  90.000         158.000            4.521e+00          -3.086e+01              68.126           4.520e+00             110.888           3.875e+01     
  90.000         159.000            4.545e+00          -3.083e+01              69.908           4.543e+00             111.605           3.892e+01     
  90.000         160.000            4.563e+00          -3.079e+01              71.656           4.562e+00             112.318           3.907e+01     
  90.000         161.000            4.577e+00          -3.075e+01              73.369           4.576e+00             113.027           3.923e+01     
  90.000         162.000            4.587e+00          -3.070e+01              75.048           4.585e+00             113.732           3.937e+01     
  90.000         163.000            4.591e+00          -3.065e+01              76.691           4.590e+00             114.432           3.951e+01     
  90.000         164.000            4.592e+00          -3.060e+01              78.298           4.590e+00             115.128           3.964e+01     
  90.000         165.000            4.587e+00          -3.055e+01              79.869           4.586e+00             115.820           3.976e+01     
  90.000         166.000            4.578e+00          -3.049e+01              81.404           4.577e+00             116.507           3.988e+01     
  90.000         167.000            4.564e+00          -3.043e+01              82.905           4.563e+00             117.189           3.998e+01     
  90.000         168.000            4.546e+00          -3.038e+01              84.372           4.544e+00             117.865           4.000e+01     
  90.000         169.000            4.522e+00          -3.032e+01              85.805           4.521e+00             118.537           4.000e+01     
  90.000         170.000            4.495e+00          -3.026e+01              87.206           4.493e+00             119.202           4.000e+01     
  90.000         171.000            4.462e+00          -3.020e+01              88.576           4.461e+00             119.863           4.000e+01     
  90.000         172.000            4.425e+00          -3.014e+01              89.915           4.423e+00             120.517           4.000e+01     
  90.000         173.000            4.383e+00          -3.008e+01              91.226           4.381e+00             121.165           4.000e+01     
  90.000         174.000            4.336e+00          -3.003e+01              92.510           4.335e+00             121.807           4.000e+01     
  90.000         175.000            4.285e+00          -2.997e+01              93.768           4.283e+00             122.443           4.000e+01     
  90.000         176.000            4.228e+00          -2.991e+01              95.002           4.226e+00             123.072           4.000e+01     
  90.000         177.000            4.167e+00          -2.986e+01              96.213           4.165e+00             123.694           4.000e+01     
  90.000         178.000            4.100e+00          -2.980e+01              97.403           4.099e+00             124.310           4.000e+01     
  90.000         179.000            4.029e+00          -2.975e+01              98.573           4.027e+00             124.918           4.000e+01     
  90.000         180.000            3.953e+00          -2.970e+01              99.724           3.951e+00             125.519           4.000e+01     
  90.000         181.000            3.872e+00          -2.965e+01             100.859           3.870e+00             126.112           4.000e+01     
  90.000         182.000            3.785e+00          -2.960e+01             101.979           3.783e+00             126.698           4.000e+01     
  90.000         183.000            3.693e+00          -2.955e+01             103.085           3.691e+00             127.277           4.000e+01     
  90.000         184.000            3.596e+00          -2.950e+01             104.179           3.594e+00             127.847           4.000e+01     
  90.000         185.000            3.494e+00          -2.946e+01             105.261           3.492e+00             128.409           4.000e+01     
  90.000         186.000            3.386e+00          -2.942e+01             106.334           3.384e+00             128.963           4.000e+01     
  90.000         187.000            3.273e+00          -2.937e+01             107.398           3.271e+00             129.509           4.000e+01     
  90.000         188.000            3.154e+00          -2.933e+01             108.454           3.152e+00             130.046           4.000e+01     
  90.000         189.000            3.030e+00          -2.929e+01             109.504           3.027e+00             130.575           4.000e+01     
  90.000         190.000            2.899e+00          -2.925e+01             110.549           2.897e+00             131.095           4.000e+01     
  90.000         191.000            2.763e+00          -2.921e+01             111.589           2.761e+00             131.606           4.000e+01     
  90.000         192.000            2.621e+00          -2.918e+01             112.626           2.619e+00             132.108           4.000e+01     
  90.000         193.000            2.473e+00          -2.914e+01             113.659           2.470e+00             132.602           4.000e+01     
  90.000         194.000            2.319e+00          -2.911e+01             114.691           2.316e+00             133.086           4.000e+01     
  90.000         195.000            2.159e+00          -2.907e+01             115.720           2.155e+00             133.562           4.000e+01     
  90.000         196.000            1.992e+00          -2.903e+01             116.748           1.988e+00             134.028           4.000e+01     
  90.000         197.000            1.818e+00          -2.900e+01             117.776           1.815e+00             134.486           4.000e+01     
  90.000         198.000            1.638e+00          -2.896e+01             118.802           1.635e+00             134.934           4.000e+01     
  90.000         199.000            1.451e+00          -2.893e+01             119.828           1.447e+00             135.373           4.000e+01     
  90.000         200.000            1.258e+00          -2.889e+01             120.854           1.253e+00             135.804           4.000e+01     
  90.000         201.000            1.057e+00          -2.886e+01             121.878           1.052e+00             136.225           4.000e+01     
  90.000         202.000            8.482e-01          -2.882e+01             122.902           8.435e-01             136.638           4.000e+01     
  90.000         203.000            6.324e-01          -2.879e+01             123.924           6.274e-01             137.042           4.000e+01     
  90.000         204.000            4.088e-01          -2.875e+01             124.945           4.036e-01             137.437           4.000e+01     
  90.000         205.000            1.774e-01          -2.871e+01             125.964           1.718e-01             137.824           4.000e+01     
  90.000         206.000           -6.215e-02          -2.867e+01             126.979          -6.813e-02             138.203           4.000e+01     
  90.000         207.000           -3.101e-01          -2.863e+01             127.991          -3.164e-01             138.574           4.000e+01     
  90.000         208.000           -5.666e-01          -2.859e+01             128.999          -5.734e-01             138.937           4.000e+01     
  90.000         209.000           -8.319e-01          -2.855e+01             130.001          -8.393e-01             139.293           4.000e+01     
  90.000         210.000           -1.106e+00          -2.850e+01             130.997          -1.114e+00             139.642           4.000e+01     
  90.000         211.000           -1.391e+00          -2.846e+01             131.986          -1.399e+00             139.985           4.000e+01     
  90.000         212.000           -1.684e+00          -2.841e+01             132.966          -1.694e+00             140.322           4.000e+01     
  90.000         213.000           -1.988e+00          -2.836e+01             133.937          -1.998e+00             140.653           4.000e+01     
  90.000         214.000           -2.303e+00          -2.831e+01             134.897          -2.314e+00             140.980           4.000e+01     
  90.000         215.000           -2.628e+00          -2.826e+01             135.846          -2.640e+00             141.302           4.000e+01     
  90.000         216.000           -2.965e+00          -2.820e+01             136.781          -2.978e+00             141.622           4.000e+01     
  90.000         217.000           -3.314e+00          -2.815e+01             137.702          -3.328e+00             141.940           4.000e+01     
  90.000         218.000           -3.675e+00          -2.809e+01             138.608          -3.691e+00             142.257           4.000e+01     
  90.000         219.000           -4.049e+00          -2.803e+01             139.497          -4.067e+00             142.575           4.000e+01     
  90.000         220.000           -4.437e+00          -2.797e+01             140.369          -4.456e+00             142.895           4.000e+01     
  90.000         221.000           -4.839e+00          -2.791e+01             141.221          -4.860e+00             143.219           4.000e+01     
  90.000         222.000           -5.256e+00          -2.785e+01             142.055          -5.280e+00             143.549           4.000e+01     
  90.000         223.000           -5.689e+00          -2.779e+01             142.867          -5.716e+00             143.888           4.000e+01     
  90.000         224.000           -6.139e+00          -2.773e+01             143.658          -6.169e+00             144.239           4.000e+01     
  90.000         225.000           -6.606e+00          -2.766e+01             144.423          -6.641e+00             144.605           4.000e+01     
  90.000         226.000           -7.093e+00          -2.760e+01             145.168          -7.132e+00             144.990           4.000e+01     
  90.000         227.000           -7.600e+00          -2.753e+01             145.890          -7.644e+00             145.399           4.000e+01     
  90.000         228.000           -8.128e+00          -2.747e+01             146.586          -8.179e+00             145.839           4.000e+01     
  90.000         229.000           -8.679e+00          -2.740e+01             147.258          -8.738e+00             146.315           4.000e+01     
  90.000         230.000           -9.255e+00          -2.733e+01             147.904          -9.323e+00             146.838           4.000e+01     
  90.000         231.000           -9.858e+00          -2.727e+01             148.524          -9.937e+00             147.417           4.000e+01     
  90.000         232.000           -1.049e+01          -2.720e+01             149.118          -1.058e+01             148.066           4.000e+01     
  90.000         233.000           -1.115e+01          -2.714e+01             149.686          -1.126e+01             148.802           4.000e+01     
  90.000         234.000           -1.185e+01          -2.707e+01             150.227          -1.198e+01             149.647           4.000e+01     
  90.000         235.000           -1.258e+01          -2.701e+01             150.742          -1.274e+01             150.626           4.000e+01     
  90.000         236.000           -1.335e+01          -2.694e+01             151.230          -1.354e+01             151.776           4.000e+01     
  90.000         237.000           -1.416e+01          -2.688e+01             151.691          -1.440e+01             153.143           4.000e+01     
  90.000         238.000           -1.502e+01          -2.682e+01             152.126          -1.532e+01             154.791           3.875e+01     
  90.000         239.000           -1.592e+01          -2.676e+01             152.534          -1.630e+01             156.804           3.377e+01     
  90.000         240.000           -1.687e+01          -2.671e+01             152.916          -1.734e+01             159.300           2.938e+01     
  90.000         241.000           -1.785e+01          -2.665e+01             153.273          -1.847e+01             162.445           2.534e+01     
  90.000         242.000           -1.887e+01          -2.660e+01             153.604          -1.967e+01             166.468           2.152e+01     
  90.000         243.000           -1.988e+01          -2.655e+01             153.909          -2.094e+01             171.693           1.788e+01     
  90.000         244.000           -2.086e+01          -2.650e+01             154.190          -2.225e+01             178.540           1.441e+01     
  90.000         245.000           -2.173e+01          -2.645e+01             154.446          -2.351e+01             187.490           1.113e+01     
  90.000         246.000           -2.240e+01          -2.640e+01             154.677          -2.460e+01             198.859           8.089e+00     
  90.000         247.000           -2.279e+01          -2.636e+01             154.886          -2.531e+01             212.336           5.341e+00     
  90.000         248.000           -2.287e+01          -2.632e+01             155.070          -2.547e+01             226.599           2.978e+00     
  90.000         249.000           -2.265e+01          -2.628e+01             155.232          -2.511e+01             239.818           1.439e+00     
  90.000         250.000           -2.221e+01          -2.625e+01             155.371          -2.438e+01             250.783           2.045e+00     
  90.000         251.000           -2.164e+01          -2.622e+01             155.489          -2.350e+01             259.285           3.466e+00     
  90.000         252.000           -2.102e+01          -2.619e+01             155.585          -2.259e+01             265.678           4.817e+00     
  90.000         253.000           -2.039e+01          -2.617e+01             155.660          -2.172e+01             270.442           6.007e+00     
  90.000         254.000           -1.978e+01          -2.614e+01             155.714          -2.092e+01             273.986           7.039e+00     
  90.000         255.000           -1.922e+01          -2.613e+01             155.748          -2.020e+01             276.619           7.930e+00     
  90.000         256.000           -1.869e+01          -2.611e+01             155.762          -1.956e+01             278.563           8.696e+00     
  90.000         257.000           -1.821e+01          -2.610e+01             155.757          -1.899e+01             279.974           9.354e+00     
  90.000         258.000           -1.778e+01          -2.609e+01             155.734          -1.847e+01             280.966           9.918e+00     
  90.000         259.000           -1.739e+01          -2.609e+01             155.692          -1.802e+01             281.617           1.040e+01     
  90.000         260.000           -1.704e+01          -2.609e+01             155.631          -1.762e+01             281.987           1.081e+01     
  90.000         261.000           -1.673e+01          -2.609e+01             155.553          -1.726e+01             282.120           1.116e+01     
  90.000         262.000           -1.645e+01          -2.610e+01             155.458          -1.695e+01             282.047           1.145e+01     
  90.000         263.000           -1.620e+01          -2.611e+01             155.346          -1.667e+01             281.792           1.170e+01     
  90.000         264.000           -1.599e+01          -2.612e+01             155.217          -1.643e+01             281.373           1.190e+01     
  90.000         265.000           -1.579e+01          -2.614e+01             155.071          -1.621e+01             280.804           1.206e+01     
  90.000         266.000           -1.563e+01          -2.617e+01             154.910          -1.603e+01             280.094           1.218e+01     
  90.000         267.000           -1.549e+01          -2.620e+01             154.732          -1.587e+01             279.252           1.228e+01     
  90.000         268.000           -1.536e+01          -2.623e+01             154.539          -1.573e+01             278.282           1.235e+01     
  90.000         269.000           -1.526e+01          -2.627e+01             154.330          -1.562e+01             277.188           1.239e+01     
  90.000         270.000           -1.517e+01          -2.631e+01             154.106          -1.552e+01             275.971           1.242e+01     
  90.000         271.000           -1.510e+01          -2.635e+01             153.866          -1.544e+01             274.635           1.242e+01     
  90.000         272.000           -1.504e+01          -2.640e+01             153.611          -1.537e+01             273.178           1.242e+01     
  90.000         273.000           -1.500e+01          -2.646e+01             153.341          -1.532e+01             271.601           1.240e+01     
  90.000         274.000           -1.496e+01          -2.652e+01             153.055          -1.528e+01             269.904           1.237e+01     
  90.000         275.000           -1.494e+01          -2.659e+01             152.754          -1.524e+01             268.086           1.234e+01     
  90.000         276.000           -1.492e+01          -2.666e+01             152.438          -1.522e+01             266.149           1.231e+01     
  90.000         277.000           -1.490e+01          -2.673e+01             152.105          -1.520e+01             264.092           1.229e+01     
  90.000         278.000           -1.489e+01          -2.682e+01             151.757          -1.518e+01             261.917           1.226e+01     
  90.000         279.000           -1.488e+01          -2.690e+01             151.392          -1.516e+01             259.626           1.225e+01     
  90.000         280.000           -1.486e+01          -2.700e+01             151.011          -1.514e+01             257.223           1.226e+01     
  90.000         281.000           -1.484e+01          -2.709e+01             150.612          -1.511e+01             254.712           1.229e+01     
  90.000         282.000           -1.482e+01          -2.720e+01             150.195          -1.508e+01             252.100           1.233e+01     
  90.000         283.000           -1.479e+01          -2.731e+01             149.760          -1.504e+01             249.397           1.241e+01     
  90.000         284.000           -1.475e+01          -2.743e+01             149.306          -1.499e+01             246.612           1.252e+01     
  90.000         285.000           -1.469e+01          -2.755e+01             148.831          -1.492e+01             243.758           1.266e+01     
  90.000         286.000           -1.463e+01          -2.768e+01             148.336          -1.485e+01             240.848           1.284e+01     
  90.000         287.000           -1.454e+01          -2.781e+01             147.819          -1.475e+01             237.899           1.306e+01     
  90.000         288.000           -1.445e+01          -2.796e+01             147.278          -1.464e+01             234.927           1.332e+01     
  90.000         289.000           -1.433e+01          -2.810e+01             146.712          -1.452e+01             231.949           1.362e+01     
  90.000         290.000           -1.420e+01          -2.826e+01             146.120          -1.438e+01             228.982           1.396e+01     
  90.000         291.000           -1.406e+01          -2.842e+01             145.500          -1.422e+01             226.044           1.433e+01     
  90.000         292.000           -1.389e+01          -2.860e+01             144.850          -1.404e+01             223.150           1.475e+01     
  90.000         293.000           -1.372e+01          -2.877e+01             144.167          -1.385e+01             220.314           1.519e+01     
  90.000         294.000           -1.353e+01          -2.896e+01             143.450          -1.365e+01             217.551           1.567e+01     
  90.000         295.000           -1.332e+01          -2.915e+01             142.696          -1.344e+01             214.871           1.617e+01     
  90.000         296.000           -1.311e+01          -2.936e+01             141.901          -1.321e+01             212.283           1.669e+01     
  90.000         297.000           -1.288e+01          -2.957e+01             141.062          -1.298e+01             209.794           1.723e+01     
  90.000         298.000           -1.265e+01          -2.979e+01             140.176          -1.273e+01             207.411           1.778e+01     
  90.000         299.000           -1.241e+01          -3.001e+01             139.238          -1.249e+01             205.135           1.834e+01     
  90.000         300.000           -1.217e+01          -3.025e+01             138.243          -1.223e+01             202.970           1.891e+01     
  90.000         301.000           -1.192e+01          -3.049e+01             137.187          -1.198e+01             200.915           1.948e+01     
  90.000         302.000           -1.167e+01          -3.075e+01             136.063          -1.173e+01             198.972           2.005e+01     
  90.000         303.000           -1.142e+01          -3.101e+01             134.865          -1.147e+01             197.137           2.062e+01     
  90.000         304.000           -1.118e+01          -3.128e+01             133.586          -1.122e+01             195.410           2.118e+01     
  90.000         305.000           -1.093e+01          -3.156e+01             132.218          -1.097e+01             193.788           2.173e+01     
  90.000         306.000           -1.069e+01          -3.185e+01             130.753          -1.072e+01             192.268           2.227e+01     
  90.000         307.000           -1.045e+01          -3.215e+01             129.180          -1.048e+01             190.848           2.279e+01     
  90.000         308.000           -1.021e+01          -3.245e+01             127.490          -1.024e+01             189.523           2.330e+01     
  90.000         309.000           -9.980e+00          -3.276e+01             125.671          -1.000e+01             188.292           2.380e+01     
  90.000         310.000           -9.754e+00          -3.307e+01             123.711          -9.774e+00             187.152           2.428e+01     
  90.000         311.000           -9.534e+00          -3.339e+01             121.598          -9.552e+00             186.098           2.474e+01     
  90.000         312.000           -9.321e+00          -3.372e+01             119.319          -9.336e+00             185.129           2.518e+01     
  90.000         313.000           -9.113e+00          -3.404e+01             116.860          -9.127e+00             184.243           2.561e+01     
  90.000         314.000           -8.912e+00          -3.436e+01             114.210          -8.924e+00             183.436           2.602e+01     
  90.000         315.000           -8.718e+00          -3.467e+01             111.357          -8.729e+00             182.706           2.642e+01     
  90.000         316.000           -8.530e+00          -3.498e+01             108.300          -8.540e+00             182.053           2.679e+01     
  90.000         317.000           -8.349e+00          -3.527e+01             105.021          -8.358e+00             181.473           2.715e+01     
  90.000         318.000           -8.175e+00          -3.554e+01             101.526          -8.183e+00             180.965           2.750e+01     
  90.000         319.000           -8.007e+00          -3.578e+01              97.823          -8.015e+00             180.528           2.784e+01     
  90.000         320.000           -7.847e+00          -3.600e+01              93.926          -7.853e+00             180.161           2.816e+01     
  90.000         321.000           -7.693e+00          -3.617e+01              89.859          -7.699e+00             179.863           2.848e+01     
  90.000         322.000           -7.545e+00          -3.631e+01              85.656          -7.551e+00             179.633           2.878e+01     
  90.000         323.000           -7.403e+00          -3.640e+01              81.357          -7.409e+00             179.470           2.908e+01     
  90.000         324.000           -7.268e+00          -3.645e+01              77.012          -7.273e+00             179.374           2.938e+01     
  90.000         325.000           -7.139e+00          -3.644e+01              72.672          -7.144e+00             179.343           2.967e+01     
  90.000         326.000           -7.015e+00          -3.639e+01              68.387          -7.020e+00             179.379           2.996e+01     
  90.000         327.000           -6.897e+00          -3.629e+01              64.205          -6.902e+00             179.480           3.026e+01     
  90.000         328.000           -6.783e+00          -3.615e+01              60.169          -6.788e+00             179.646           3.057e+01     
  90.000         329.000           -6.675e+00          -3.597e+01              56.309          -6.680e+00             179.878           3.088e+01     
  90.000         330.000           -6.571e+00          -3.577e+01              52.651          -6.576e+00             180.174           3.121e+01     
  90.000         331.000           -6.471e+00          -3.554e+01              49.207          -6.476e+00             180.536           3.155e+01     
  90.000         332.000           -6.374e+00          -3.529e+01              45.986          -6.380e+00             180.961           3.192e+01     
  90.000         333.000           -6.281e+00          -3.502e+01              42.985          -6.287e+00             181.451           3.231e+01     
  90.000         334.000           -6.191e+00          -3.475e+01              40.202          -6.197e+00             182.004           3.274e+01     
  90.000         335.000           -6.103e+00          -3.447e+01              37.625          -6.109e+00             182.620           3.320e+01     
  90.000         336.000           -6.017e+00          -3.419e+01              35.245          -6.023e+00             183.299           3.371e+01     
  90.000         337.000           -5.932e+00          -3.391e+01              33.047          -5.939e+00             184.039           3.427e+01     
  90.000         338.000           -5.848e+00          -3.363e+01              31.021          -5.855e+00             184.839           3.490e+01     
  90.000         339.000           -5.764e+00          -3.336e+01              29.150          -5.772e+00             185.698           3.560e+01     
  90.000         340.000           -5.680e+00          -3.309e+01              27.424          -5.688e+00             186.614           3.641e+01     
  90.000         341.000           -5.595e+00          -3.283e+01              25.830          -5.603e+00             187.586           3.733e+01     
  90.000         342.000           -5.509e+00          -3.258e+01              24.356          -5.517e+00             188.610           3.841e+01     
  90.000         343.000           -5.421e+00          -3.234e+01              22.991          -5.429e+00             189.684           3.968e+01     
  90.000         344.000           -5.330e+00          -3.210e+01              21.725          -5.339e+00             190.806           4.000e+01     
  90.000         345.000           -5.237e+00          -3.188e+01              20.550          -5.246e+00             191.971           4.000e+01     
  90.000         346.000           -5.140e+00          -3.166e+01              19.458          -5.150e+00             193.177           4.000e+01     
  90.000         347.000           -5.040e+00          -3.145e+01              18.439          -5.050e+00             194.419           4.000e+01     
  90.000         348.000           -4.936e+00          -3.125e+01              17.489          -4.946e+00             195.693           4.000e+01     
  90.000         349.000           -4.828e+00          -3.106e+01              16.599          -4.838e+00             196.995           4.000e+01     
  90.000         350.000           -4.715e+00          -3.088e+01              15.765          -4.726e+00             198.320           4.000e+01     
  90.000         351.000           -4.598e+00          -3.071e+01              14.982          -4.608e+00             199.664           4.000e+01     
  90.000         352.000           -4.476e+00          -3.055e+01              14.244          -4.486e+00             201.021           4.000e+01     
  90.000         353.000           -4.349e+00          -3.040e+01              13.547          -4.360e+00             202.388           4.000e+01     
  90.000         354.000           -4.217e+00          -3.025e+01              12.887          -4.228e+00             203.759           4.000e+01     
  90.000         355.000           -4.082e+00          -3.011e+01              12.260          -4.092e+00             205.129           3.909e+01     
  90.000         356.000           -3.941e+00          -2.998e+01              11.663          -3.952e+00             206.495           3.789e+01     
  90.000         357.000           -3.797e+00          -2.986e+01              11.093          -3.808e+00             207.852           3.688e+01     
  90.000         358.000           -3.649e+00          -2.975e+01              10.546          -3.660e+00             209.196           3.601e+01     
  90.000         359.000           -3.498e+00          -2.964e+01              10.021          -3.509e+00             210.524           3.527e+01     
