Theta [deg.]  Phi   [deg.]  Abs(Dir.)[dBi   ]   Abs(Theta)[dBi   ]  Phase(Theta)[deg.]  Abs(Phi  )[dBi   ]  Phase(Phi  )[deg.]  Ax.Ratio[dB    ]    
------------------------------------------------------------------------------------------------------------------------------------------------------
   0.000         135.000            2.823e+00          -1.366e+00             219.768           7.384e-01              48.760           2.234e+01     
   1.000         135.000            2.810e+00          -1.367e+00             219.921           7.190e-01              49.099           2.216e+01     
   2.000         135.000            2.796e+00          -1.371e+00             220.076           6.987e-01              49.440           2.198e+01     
   3.000         135.000            2.780e+00          -1.379e+00             220.231           6.775e-01              49.784           2.181e+01     
   4.000         135.000            2.762e+00          -1.391e+00             220.389           6.554e-01              50.129           2.163e+01     
   5.000         135.000            2.742e+00          -1.405e+00             220.547           6.324e-01              50.477           2.146e+01     
   6.000         135.000            2.721e+00          -1.424e+00             220.706           6.085e-01              50.826           2.130e+01     
   7.000         135.000            2.697e+00          -1.445e+00             220.867           5.837e-01              51.178           2.113e+01     
   8.000         135.000            2.672e+00          -1.470e+00             221.029           5.580e-01              51.531           2.097e+01     
   9.000         135.000            2.644e+00          -1.499e+00             221.192           5.315e-01              51.886           2.081e+01     
  10.000         135.000            2.615e+00          -1.531e+00             221.355           5.041e-01              52.243           2.066e+01     
  11.000         135.000            2.584e+00          -1.566e+00             221.520           4.759e-01              52.601           2.051e+01     
  12.000         135.000            2.551e+00          -1.605e+00             221.685           4.468e-01              52.961           2.036e+01     
  13.000         135.000            2.517e+00          -1.647e+00             221.851           4.170e-01              53.322           2.021e+01     
  14.000         135.000            2.480e+00          -1.693e+00             222.017           3.863e-01              53.684           2.007e+01     
  15.000         135.000            2.442e+00          -1.743e+00             222.184           3.548e-01              54.048           1.992e+01     
  16.000         135.000            2.402e+00          -1.796e+00             222.352           3.225e-01              54.412           1.978e+01     
  17.000         135.000            2.360e+00          -1.852e+00             222.519           2.895e-01              54.778           1.965e+01     
  18.000         135.000            2.316e+00          -1.912e+00             222.687           2.558e-01              55.144           1.951e+01     
  19.000         135.000            2.271e+00          -1.976e+00             222.855           2.213e-01              55.511           1.938e+01     
  20.000         135.000            2.223e+00          -2.043e+00             223.024           1.861e-01              55.879           1.925e+01     
  21.000         135.000            2.174e+00          -2.114e+00             223.192           1.502e-01              56.248           1.913e+01     
  22.000         135.000            2.124e+00          -2.188e+00             223.360           1.136e-01              56.617           1.900e+01     
  23.000         135.000            2.072e+00          -2.266e+00             223.528           7.644e-02              56.987           1.888e+01     
  24.000         135.000            2.018e+00          -2.348e+00             223.695           3.862e-02              57.356           1.876e+01     
  25.000         135.000            1.962e+00          -2.433e+00             223.862           1.931e-04              57.726           1.865e+01     
  26.000         135.000            1.905e+00          -2.522e+00             224.028          -3.881e-02              58.097           1.854e+01     
  27.000         135.000            1.846e+00          -2.615e+00             224.194          -7.837e-02              58.467           1.842e+01     
  28.000         135.000            1.786e+00          -2.712e+00             224.358          -1.185e-01              58.837           1.832e+01     
  29.000         135.000            1.724e+00          -2.812e+00             224.522          -1.591e-01              59.206           1.821e+01     
  30.000         135.000            1.661e+00          -2.917e+00             224.685          -2.001e-01              59.576           1.811e+01     
  31.000         135.000            1.596e+00          -3.025e+00             224.846          -2.417e-01              59.945           1.801e+01     
  32.000         135.000            1.530e+00          -3.137e+00             225.006          -2.836e-01              60.313           1.791e+01     
  33.000         135.000            1.463e+00          -3.253e+00             225.164          -3.260e-01              60.681           1.782e+01     
  34.000         135.000            1.394e+00          -3.374e+00             225.321          -3.687e-01              61.048           1.772e+01     
  35.000         135.000            1.324e+00          -3.498e+00             225.476          -4.118e-01              61.414           1.764e+01     
  36.000         135.000            1.253e+00          -3.626e+00             225.628          -4.552e-01              61.779           1.755e+01     
  37.000         135.000            1.180e+00          -3.759e+00             225.778          -4.989e-01              62.142           1.747e+01     
  38.000         135.000            1.107e+00          -3.896e+00             225.926          -5.428e-01              62.505           1.739e+01     
  39.000         135.000            1.032e+00          -4.037e+00             226.071          -5.870e-01              62.866           1.731e+01     
  40.000         135.000            9.567e-01          -4.182e+00             226.213          -6.313e-01              63.226           1.724e+01     
  41.000         135.000            8.801e-01          -4.332e+00             226.352          -6.758e-01              63.584           1.717e+01     
  42.000         135.000            8.027e-01          -4.487e+00             226.488          -7.205e-01              63.940           1.711e+01     
  43.000         135.000            7.243e-01          -4.646e+00             226.620          -7.652e-01              64.295           1.704e+01     
  44.000         135.000            6.452e-01          -4.811e+00             226.748          -8.101e-01              64.647           1.699e+01     
  45.000         135.000            5.654e-01          -4.980e+00             226.872          -8.549e-01              64.997           1.693e+01     
  46.000         135.000            4.849e-01          -5.154e+00             226.991          -8.998e-01              65.345           1.688e+01     
  47.000         135.000            4.038e-01          -5.333e+00             227.105          -9.446e-01              65.691           1.684e+01     
  48.000         135.000            3.221e-01          -5.517e+00             227.215          -9.894e-01              66.035           1.680e+01     
  49.000         135.000            2.401e-01          -5.707e+00             227.318          -1.034e+00              66.375           1.676e+01     
  50.000         135.000            1.576e-01          -5.903e+00             227.416          -1.079e+00              66.713           1.673e+01     
  51.000         135.000            7.488e-02          -6.104e+00             227.507          -1.123e+00              67.048           1.671e+01     
  52.000         135.000           -8.080e-03          -6.311e+00             227.591          -1.167e+00              67.380           1.669e+01     
  53.000         135.000           -9.118e-02          -6.525e+00             227.668          -1.211e+00              67.709           1.667e+01     
  54.000         135.000           -1.743e-01          -6.745e+00             227.737          -1.255e+00              68.035           1.666e+01     
  55.000         135.000           -2.575e-01          -6.971e+00             227.797          -1.298e+00              68.358           1.666e+01     
  56.000         135.000           -3.405e-01          -7.205e+00             227.848          -1.341e+00              68.677           1.666e+01     
  57.000         135.000           -4.233e-01          -7.446e+00             227.889          -1.384e+00              68.992           1.667e+01     
  58.000         135.000           -5.058e-01          -7.695e+00             227.919          -1.427e+00              69.304           1.669e+01     
  59.000         135.000           -5.879e-01          -7.951e+00             227.937          -1.468e+00              69.611           1.671e+01     
  60.000         135.000           -6.696e-01          -8.216e+00             227.943          -1.510e+00              69.915           1.674e+01     
  61.000         135.000           -7.506e-01          -8.490e+00             227.935          -1.551e+00              70.215           1.678e+01     
  62.000         135.000           -8.310e-01          -8.773e+00             227.912          -1.591e+00              70.511           1.683e+01     
  63.000         135.000           -9.106e-01          -9.065e+00             227.873          -1.631e+00              70.802           1.689e+01     
  64.000         135.000           -9.893e-01          -9.369e+00             227.816          -1.671e+00              71.088           1.695e+01     
  65.000         135.000           -1.067e+00          -9.683e+00             227.739          -1.710e+00              71.370           1.703e+01     
  66.000         135.000           -1.144e+00          -1.001e+01             227.641          -1.748e+00              71.648           1.711e+01     
  67.000         135.000           -1.219e+00          -1.035e+01             227.519          -1.785e+00              71.920           1.721e+01     
  68.000         135.000           -1.293e+00          -1.070e+01             227.370          -1.822e+00              72.188           1.732e+01     
  69.000         135.000           -1.366e+00          -1.107e+01             227.191          -1.858e+00              72.451           1.743e+01     
  70.000         135.000           -1.437e+00          -1.145e+01             226.979          -1.893e+00              72.708           1.757e+01     
  71.000         135.000           -1.506e+00          -1.185e+01             226.730          -1.928e+00              72.960           1.771e+01     
  72.000         135.000           -1.574e+00          -1.227e+01             226.438          -1.961e+00              73.207           1.787e+01     
  73.000         135.000           -1.640e+00          -1.270e+01             226.098          -1.994e+00              73.448           1.804e+01     
  74.000         135.000           -1.704e+00          -1.316e+01             225.702          -2.026e+00              73.683           1.823e+01     
  75.000         135.000           -1.766e+00          -1.365e+01             225.241          -2.057e+00              73.913           1.843e+01     
  76.000         135.000           -1.826e+00          -1.416e+01             224.705          -2.087e+00              74.137           1.865e+01     
  77.000         135.000           -1.883e+00          -1.470e+01             224.079          -2.117e+00              74.355           1.889e+01     
  78.000         135.000           -1.938e+00          -1.527e+01             223.348          -2.145e+00              74.567           1.914e+01     
  79.000         135.000           -1.991e+00          -1.588e+01             222.489          -2.172e+00              74.773           1.942e+01     
  80.000         135.000           -2.041e+00          -1.654e+01             221.474          -2.198e+00              74.972           1.972e+01     
  81.000         135.000           -2.089e+00          -1.723e+01             220.266          -2.224e+00              75.165           2.005e+01     
  82.000         135.000           -2.134e+00          -1.799e+01             218.817          -2.248e+00              75.352           2.039e+01     
  83.000         135.000           -2.176e+00          -1.880e+01             217.058          -2.271e+00              75.532           2.077e+01     
  84.000         135.000           -2.215e+00          -1.969e+01             214.896          -2.293e+00              75.706           2.118e+01     
  85.000         135.000           -2.251e+00          -2.065e+01             212.198          -2.314e+00              75.872           2.162e+01     
  86.000         135.000           -2.284e+00          -2.170e+01             208.772          -2.334e+00              76.032           2.210e+01     
  87.000         135.000           -2.314e+00          -2.285e+01             204.336          -2.353e+00              76.185           2.261e+01     
  88.000         135.000           -2.341e+00          -2.408e+01             198.478          -2.370e+00              76.331           2.317e+01     
  89.000         135.000           -2.365e+00          -2.537e+01             190.618          -2.387e+00              76.470           2.379e+01     
  90.000         135.000           -2.386e+00          -2.662e+01             180.062          -2.402e+00              76.602           2.446e+01     
  91.000         135.000           -2.403e+00          -2.761e+01             166.349          -2.416e+00              76.726           2.520e+01     
  92.000         135.000           -2.417e+00          -2.806e+01             150.106          -2.429e+00              76.843           2.601e+01     
  93.000         135.000           -2.428e+00          -2.779e+01             133.551          -2.441e+00              76.953           2.692e+01     
  94.000         135.000           -2.436e+00          -2.691e+01             119.143          -2.451e+00              77.055           2.795e+01     
  95.000         135.000           -2.440e+00          -2.572e+01             107.872          -2.460e+00              77.150           2.912e+01     
  96.000         135.000           -2.441e+00          -2.445e+01              99.436          -2.468e+00              77.238           3.048e+01     
  97.000         135.000           -2.439e+00          -2.322e+01              93.143          -2.475e+00              77.318           3.210e+01     
  98.000         135.000           -2.433e+00          -2.207e+01              88.378          -2.481e+00              77.390           3.408e+01     
  99.000         135.000           -2.425e+00          -2.102e+01              84.694          -2.485e+00              77.454           3.665e+01     
 100.000         135.000           -2.413e+00          -2.006e+01              81.783          -2.488e+00              77.511           4.000e+01     
 101.000         135.000           -2.398e+00          -1.918e+01              79.434          -2.490e+00              77.560           4.000e+01     
 102.000         135.000           -2.380e+00          -1.837e+01              77.506          -2.491e+00              77.601           4.000e+01     
 103.000         135.000           -2.359e+00          -1.762e+01              75.897          -2.490e+00              77.634           4.000e+01     
 104.000         135.000           -2.335e+00          -1.693e+01              74.535          -2.488e+00              77.660           4.000e+01     
 105.000         135.000           -2.308e+00          -1.629e+01              73.365          -2.485e+00              77.677           3.664e+01     
 106.000         135.000           -2.279e+00          -1.569e+01              72.351          -2.481e+00              77.687           3.424e+01     
 107.000         135.000           -2.246e+00          -1.513e+01              71.460          -2.476e+00              77.689           3.240e+01     
 108.000         135.000           -2.211e+00          -1.460e+01              70.672          -2.469e+00              77.683           3.091e+01     
 109.000         135.000           -2.173e+00          -1.410e+01              69.967          -2.461e+00              77.669           2.967e+01     
 110.000         135.000           -2.133e+00          -1.363e+01              69.332          -2.452e+00              77.647           2.860e+01     
 111.000         135.000           -2.091e+00          -1.319e+01              68.755          -2.442e+00              77.617           2.768e+01     
 112.000         135.000           -2.046e+00          -1.276e+01              68.228          -2.430e+00              77.580           2.687e+01     
 113.000         135.000           -1.999e+00          -1.236e+01              67.743          -2.418e+00              77.534           2.615e+01     
 114.000         135.000           -1.949e+00          -1.198e+01              67.293          -2.404e+00              77.481           2.550e+01     
 115.000         135.000           -1.898e+00          -1.161e+01              66.874          -2.389e+00              77.419           2.492e+01     
 116.000         135.000           -1.845e+00          -1.126e+01              66.482          -2.373e+00              77.351           2.440e+01     
 117.000         135.000           -1.790e+00          -1.092e+01              66.112          -2.356e+00              77.274           2.392e+01     
 118.000         135.000           -1.733e+00          -1.060e+01              65.762          -2.338e+00              77.189           2.349e+01     
 119.000         135.000           -1.675e+00          -1.029e+01              65.429          -2.318e+00              77.097           2.309e+01     
 120.000         135.000           -1.615e+00          -9.986e+00              65.111          -2.298e+00              76.998           2.273e+01     
 121.000         135.000           -1.554e+00          -9.697e+00              64.806          -2.277e+00              76.890           2.240e+01     
 122.000         135.000           -1.491e+00          -9.419e+00              64.513          -2.254e+00              76.776           2.209e+01     
 123.000         135.000           -1.428e+00          -9.150e+00              64.229          -2.231e+00              76.653           2.181e+01     
 124.000         135.000           -1.363e+00          -8.891e+00              63.954          -2.207e+00              76.524           2.156e+01     
 125.000         135.000           -1.297e+00          -8.641e+00              63.687          -2.182e+00              76.387           2.132e+01     
 126.000         135.000           -1.230e+00          -8.398e+00              63.426          -2.156e+00              76.243           2.111e+01     
 127.000         135.000           -1.162e+00          -8.164e+00              63.171          -2.129e+00              76.092           2.091e+01     
 128.000         135.000           -1.094e+00          -7.936e+00              62.921          -2.101e+00              75.934           2.073e+01     
 129.000         135.000           -1.025e+00          -7.716e+00              62.675          -2.072e+00              75.769           2.056e+01     
 130.000         135.000           -9.554e-01          -7.503e+00              62.433          -2.043e+00              75.597           2.041e+01     
 131.000         135.000           -8.854e-01          -7.296e+00              62.195          -2.012e+00              75.418           2.027e+01     
 132.000         135.000           -8.151e-01          -7.096e+00              61.959          -1.981e+00              75.232           2.014e+01     
 133.000         135.000           -7.444e-01          -6.901e+00              61.726          -1.949e+00              75.040           2.003e+01     
 134.000         135.000           -6.735e-01          -6.712e+00              61.495          -1.917e+00              74.842           1.993e+01     
 135.000         135.000           -6.025e-01          -6.529e+00              61.266          -1.884e+00              74.637           1.984e+01     
 136.000         135.000           -5.315e-01          -6.351e+00              61.039          -1.850e+00              74.426           1.975e+01     
 137.000         135.000           -4.604e-01          -6.178e+00              60.812          -1.816e+00              74.209           1.968e+01     
 138.000         135.000           -3.895e-01          -6.011e+00              60.587          -1.781e+00              73.986           1.962e+01     
 139.000         135.000           -3.188e-01          -5.848e+00              60.362          -1.745e+00              73.757           1.956e+01     
 140.000         135.000           -2.483e-01          -5.690e+00              60.139          -1.709e+00              73.522           1.952e+01     
 141.000         135.000           -1.781e-01          -5.537e+00              59.916          -1.673e+00              73.281           1.948e+01     
 142.000         135.000           -1.083e-01          -5.388e+00              59.693          -1.636e+00              73.036           1.945e+01     
 143.000         135.000           -3.900e-02          -5.244e+00              59.470          -1.598e+00              72.784           1.942e+01     
 144.000         135.000            2.982e-02          -5.104e+00              59.248          -1.560e+00              72.528           1.940e+01     
 145.000         135.000            9.806e-02          -4.968e+00              59.026          -1.522e+00              72.266           1.939e+01     
 146.000         135.000            1.657e-01          -4.837e+00              58.804          -1.484e+00              72.000           1.938e+01     
 147.000         135.000            2.326e-01          -4.710e+00              58.582          -1.445e+00              71.728           1.938e+01     
 148.000         135.000            2.987e-01          -4.586e+00              58.359          -1.406e+00              71.452           1.939e+01     
 149.000         135.000            3.641e-01          -4.467e+00              58.137          -1.367e+00              71.171           1.940e+01     
 150.000         135.000            4.286e-01          -4.352e+00              57.914          -1.328e+00              70.886           1.941e+01     
 151.000         135.000            4.922e-01          -4.240e+00              57.691          -1.288e+00              70.597           1.943e+01     
 152.000         135.000            5.549e-01          -4.132e+00              57.468          -1.249e+00              70.303           1.946e+01     
 153.000         135.000            6.165e-01          -4.028e+00              57.245          -1.209e+00              70.006           1.949e+01     
 154.000         135.000            6.771e-01          -3.928e+00              57.021          -1.169e+00              69.704           1.952e+01     
 155.000         135.000            7.366e-01          -3.832e+00              56.797          -1.129e+00              69.399           1.956e+01     
 156.000         135.000            7.949e-01          -3.739e+00              56.572          -1.090e+00              69.090           1.960e+01     
 157.000         135.000            8.521e-01          -3.650e+00              56.347          -1.050e+00              68.778           1.965e+01     
 158.000         135.000            9.081e-01          -3.564e+00              56.122          -1.010e+00              68.462           1.970e+01     
 159.000         135.000            9.628e-01          -3.482e+00              55.897          -9.708e-01              68.144           1.976e+01     
 160.000         135.000            1.016e+00          -3.404e+00              55.671          -9.314e-01              67.822           1.981e+01     
 161.000         135.000            1.068e+00          -3.329e+00              55.444          -8.922e-01              67.497           1.987e+01     
 162.000         135.000            1.119e+00          -3.258e+00              55.217          -8.532e-01              67.169           1.994e+01     
 163.000         135.000            1.168e+00          -3.190e+00              54.990          -8.144e-01              66.839           2.001e+01     
 164.000         135.000            1.216e+00          -3.126e+00              54.763          -7.759e-01              66.506           2.008e+01     
 165.000         135.000            1.263e+00          -3.065e+00              54.534          -7.376e-01              66.171           2.015e+01     
 166.000         135.000            1.308e+00          -3.008e+00              54.306          -6.997e-01              65.833           2.023e+01     
 167.000         135.000            1.351e+00          -2.955e+00              54.077          -6.622e-01              65.494           2.031e+01     
 168.000         135.000            1.393e+00          -2.904e+00              53.848          -6.250e-01              65.152           2.039e+01     
 169.000         135.000            1.434e+00          -2.858e+00              53.618          -5.882e-01              64.808           2.048e+01     
 170.000         135.000            1.473e+00          -2.814e+00              53.388          -5.519e-01              64.463           2.057e+01     
 171.000         135.000            1.510e+00          -2.775e+00              53.158          -5.160e-01              64.115           2.066e+01     
 172.000         135.000            1.546e+00          -2.738e+00              52.927          -4.805e-01              63.767           2.075e+01     
 173.000         135.000            1.580e+00          -2.706e+00              52.696          -4.456e-01              63.416           2.085e+01     
 174.000         135.000            1.613e+00          -2.676e+00              52.465          -4.112e-01              63.065           2.095e+01     
 175.000         135.000            1.643e+00          -2.650e+00              52.233          -3.773e-01              62.712           2.105e+01     
 176.000         135.000            1.673e+00          -2.628e+00              52.000          -3.440e-01              62.358           2.116e+01     
 177.000         135.000            1.700e+00          -2.609e+00              51.768          -3.113e-01              62.003           2.126e+01     
 178.000         135.000            1.726e+00          -2.594e+00              51.535          -2.792e-01              61.647           2.137e+01     
 179.000         135.000            1.750e+00          -2.582e+00              51.301          -2.477e-01              61.290           2.149e+01     
 180.000         135.000            1.773e+00          -2.574e+00              51.067          -2.169e-01              60.933           2.160e+01     
 179.000         315.000            1.794e+00          -2.569e+00             230.834          -1.867e-01             240.575           2.172e+01     
 178.000         315.000            1.813e+00          -2.567e+00             230.599          -1.572e-01             240.216           2.184e+01     
 177.000         315.000            1.831e+00          -2.570e+00             230.364          -1.284e-01             239.857           2.196e+01     
 176.000         315.000            1.846e+00          -2.575e+00             230.129          -1.003e-01             239.498           2.208e+01     
 175.000         315.000            1.861e+00          -2.585e+00             229.893          -7.285e-02             239.138           2.221e+01     
 174.000         315.000            1.873e+00          -2.598e+00             229.657          -4.615e-02             238.779           2.234e+01     
 173.000         315.000            1.884e+00          -2.614e+00             229.421          -2.019e-02             238.419           2.247e+01     
 172.000         315.000            1.893e+00          -2.634e+00             229.184           5.023e-03             238.059           2.260e+01     
 171.000         315.000            1.901e+00          -2.658e+00             228.947           2.949e-02             237.699           2.274e+01     
 170.000         315.000            1.907e+00          -2.685e+00             228.710           5.320e-02             237.340           2.288e+01     
 169.000         315.000            1.911e+00          -2.716e+00             228.472           7.614e-02             236.980           2.302e+01     
 168.000         315.000            1.914e+00          -2.750e+00             228.233           9.831e-02             236.622           2.316e+01     
 167.000         315.000            1.915e+00          -2.789e+00             227.995           1.197e-01             236.263           2.330e+01     
 166.000         315.000            1.914e+00          -2.830e+00             227.755           1.403e-01             235.905           2.345e+01     
 165.000         315.000            1.912e+00          -2.876e+00             227.516           1.602e-01             235.548           2.360e+01     
 164.000         315.000            1.909e+00          -2.925e+00             227.276           1.792e-01             235.191           2.375e+01     
 163.000         315.000            1.904e+00          -2.979e+00             227.036           1.975e-01             234.835           2.390e+01     
 162.000         315.000            1.897e+00          -3.035e+00             226.795           2.150e-01             234.480           2.406e+01     
 161.000         315.000            1.889e+00          -3.096e+00             226.554           2.317e-01             234.126           2.421e+01     
 160.000         315.000            1.880e+00          -3.161e+00             226.312           2.477e-01             233.772           2.437e+01     
 159.000         315.000            1.869e+00          -3.229e+00             226.070           2.629e-01             233.420           2.453e+01     
 158.000         315.000            1.857e+00          -3.301e+00             225.827           2.773e-01             233.069           2.470e+01     
 157.000         315.000            1.843e+00          -3.377e+00             225.584           2.909e-01             232.719           2.486e+01     
 156.000         315.000            1.829e+00          -3.458e+00             225.341           3.038e-01             232.370           2.503e+01     
 155.000         315.000            1.812e+00          -3.542e+00             225.097           3.160e-01             232.023           2.520e+01     
 154.000         315.000            1.795e+00          -3.630e+00             224.852           3.274e-01             231.677           2.537e+01     
 153.000         315.000            1.776e+00          -3.722e+00             224.607           3.381e-01             231.333           2.554e+01     
 152.000         315.000            1.757e+00          -3.819e+00             224.361           3.481e-01             230.990           2.571e+01     
 151.000         315.000            1.736e+00          -3.919e+00             224.115           3.573e-01             230.648           2.589e+01     
 150.000         315.000            1.714e+00          -4.024e+00             223.868           3.659e-01             230.309           2.607e+01     
 149.000         315.000            1.691e+00          -4.133e+00             223.621           3.738e-01             229.971           2.625e+01     
 148.000         315.000            1.667e+00          -4.247e+00             223.373           3.811e-01             229.635           2.643e+01     
 147.000         315.000            1.642e+00          -4.365e+00             223.124           3.876e-01             229.300           2.661e+01     
 146.000         315.000            1.616e+00          -4.487e+00             222.875           3.936e-01             228.968           2.679e+01     
 145.000         315.000            1.589e+00          -4.615e+00             222.625           3.989e-01             228.638           2.697e+01     
 144.000         315.000            1.561e+00          -4.746e+00             222.374           4.036e-01             228.310           2.716e+01     
 143.000         315.000            1.533e+00          -4.883e+00             222.122           4.078e-01             227.984           2.734e+01     
 142.000         315.000            1.504e+00          -5.024e+00             221.870           4.114e-01             227.660           2.753e+01     
 141.000         315.000            1.474e+00          -5.171e+00             221.616           4.144e-01             227.339           2.772e+01     
 140.000         315.000            1.444e+00          -5.322e+00             221.362           4.169e-01             227.020           2.790e+01     
 139.000         315.000            1.413e+00          -5.479e+00             221.107           4.189e-01             226.703           2.809e+01     
 138.000         315.000            1.381e+00          -5.641e+00             220.850           4.204e-01             226.389           2.828e+01     
 137.000         315.000            1.349e+00          -5.809e+00             220.592           4.214e-01             226.078           2.847e+01     
 136.000         315.000            1.317e+00          -5.982e+00             220.333           4.220e-01             225.769           2.865e+01     
 135.000         315.000            1.284e+00          -6.162e+00             220.073           4.222e-01             225.463           2.884e+01     
 134.000         315.000            1.251e+00          -6.347e+00             219.811           4.219e-01             225.160           2.903e+01     
 133.000         315.000            1.218e+00          -6.538e+00             219.547           4.213e-01             224.860           2.921e+01     
 132.000         315.000            1.185e+00          -6.736e+00             219.282           4.203e-01             224.563           2.940e+01     
 131.000         315.000            1.151e+00          -6.941e+00             219.014           4.190e-01             224.268           2.958e+01     
 130.000         315.000            1.118e+00          -7.152e+00             218.745           4.173e-01             223.977           2.976e+01     
 129.000         315.000            1.084e+00          -7.371e+00             218.473           4.154e-01             223.689           2.994e+01     
 128.000         315.000            1.051e+00          -7.598e+00             218.198           4.132e-01             223.405           3.012e+01     
 127.000         315.000            1.017e+00          -7.832e+00             217.920           4.107e-01             223.123           3.030e+01     
 126.000         315.000            9.840e-01          -8.075e+00             217.639           4.081e-01             222.845           3.047e+01     
 125.000         315.000            9.510e-01          -8.327e+00             217.354           4.052e-01             222.571           3.064e+01     
 124.000         315.000            9.183e-01          -8.587e+00             217.065           4.022e-01             222.300           3.081e+01     
 123.000         315.000            8.860e-01          -8.858e+00             216.772           3.990e-01             222.033           3.098e+01     
 122.000         315.000            8.541e-01          -9.138e+00             216.473           3.957e-01             221.769           3.114e+01     
 121.000         315.000            8.226e-01          -9.430e+00             216.169           3.922e-01             221.509           3.130e+01     
 120.000         315.000            7.917e-01          -9.733e+00             215.858           3.887e-01             221.253           3.146e+01     
 119.000         315.000            7.614e-01          -1.005e+01             215.539           3.852e-01             221.002           3.161e+01     
 118.000         315.000            7.317e-01          -1.038e+01             215.212           3.816e-01             220.754           3.176e+01     
 117.000         315.000            7.027e-01          -1.072e+01             214.875           3.780e-01             220.510           3.190e+01     
 116.000         315.000            6.745e-01          -1.108e+01             214.526           3.744e-01             220.270           3.204e+01     
 115.000         315.000            6.471e-01          -1.145e+01             214.165           3.708e-01             220.034           3.218e+01     
 114.000         315.000            6.206e-01          -1.185e+01             213.789           3.673e-01             219.803           3.231e+01     
 113.000         315.000            5.949e-01          -1.226e+01             213.395           3.639e-01             219.577           3.244e+01     
 112.000         315.000            5.703e-01          -1.270e+01             212.981           3.605e-01             219.354           3.256e+01     
 111.000         315.000            5.466e-01          -1.315e+01             212.543           3.573e-01             219.136           3.268e+01     
 110.000         315.000            5.240e-01          -1.364e+01             212.076           3.542e-01             218.923           3.280e+01     
 109.000         315.000            5.026e-01          -1.415e+01             211.575           3.513e-01             218.715           3.291e+01     
 108.000         315.000            4.823e-01          -1.470e+01             211.032           3.485e-01             218.511           3.302e+01     
 107.000         315.000            4.631e-01          -1.528e+01             210.439           3.459e-01             218.312           3.313e+01     
 106.000         315.000            4.453e-01          -1.591e+01             209.783           3.436e-01             218.118           3.323e+01     
 105.000         315.000            4.287e-01          -1.659e+01             209.050           3.414e-01             217.928           3.333e+01     
 104.000         315.000            4.134e-01          -1.732e+01             208.217           3.395e-01             217.744           3.343e+01     
 103.000         315.000            3.994e-01          -1.812e+01             207.255           3.379e-01             217.565           3.352e+01     
 102.000         315.000            3.869e-01          -1.900e+01             206.123           3.365e-01             217.391           3.361e+01     
 101.000         315.000            3.757e-01          -1.997e+01             204.759           3.355e-01             217.222           3.370e+01     
 100.000         315.000            3.660e-01          -2.107e+01             203.070           3.347e-01             217.058           3.379e+01     
  99.000         315.000            3.578e-01          -2.231e+01             200.904           3.342e-01             216.900           3.388e+01     
  98.000         315.000            3.510e-01          -2.374e+01             198.009           3.341e-01             216.747           3.397e+01     
  97.000         315.000            3.458e-01          -2.543e+01             193.921           3.343e-01             216.600           3.406e+01     
  96.000         315.000            3.421e-01          -2.744e+01             187.730           3.348e-01             216.458           3.415e+01     
  95.000         315.000            3.399e-01          -2.985e+01             177.482           3.358e-01             216.321           3.425e+01     
  94.000         315.000            3.393e-01          -3.249e+01             159.053           3.370e-01             216.190           3.434e+01     
  93.000         315.000            3.402e-01          -3.409e+01             128.143           3.387e-01             216.065           3.444e+01     
  92.000         315.000            3.427e-01          -3.291e+01              95.515           3.407e-01             215.945           3.454e+01     
  91.000         315.000            3.468e-01          -3.031e+01              75.046           3.431e-01             215.831           3.464e+01     
  90.000         315.000            3.525e-01          -2.784e+01              63.749           3.459e-01             215.723           3.475e+01     
  89.000         315.000            3.597e-01          -2.575e+01              57.050           3.491e-01             215.621           3.487e+01     
  88.000         315.000            3.685e-01          -2.402e+01              52.705           3.527e-01             215.524           3.499e+01     
  87.000         315.000            3.789e-01          -2.254e+01              49.676           3.566e-01             215.433           3.512e+01     
  86.000         315.000            3.908e-01          -2.126e+01              47.447           3.610e-01             215.349           3.526e+01     
  85.000         315.000            4.043e-01          -2.014e+01              45.735           3.658e-01             215.270           3.540e+01     
  84.000         315.000            4.192e-01          -1.915e+01              44.376           3.710e-01             215.197           3.556e+01     
  83.000         315.000            4.358e-01          -1.825e+01              43.270           3.766e-01             215.130           3.572e+01     
  82.000         315.000            4.537e-01          -1.744e+01              42.350           3.826e-01             215.069           3.590e+01     
  81.000         315.000            4.732e-01          -1.669e+01              41.571           3.890e-01             215.014           3.609e+01     
  80.000         315.000            4.941e-01          -1.600e+01              40.903           3.957e-01             214.966           3.630e+01     
  79.000         315.000            5.164e-01          -1.537e+01              40.322           4.029e-01             214.923           3.652e+01     
  78.000         315.000            5.402e-01          -1.477e+01              39.813           4.104e-01             214.886           3.676e+01     
  77.000         315.000            5.652e-01          -1.421e+01              39.362           4.183e-01             214.856           3.702e+01     
  76.000         315.000            5.916e-01          -1.369e+01              38.960           4.266e-01             214.831           3.730e+01     
  75.000         315.000            6.193e-01          -1.320e+01              38.600           4.352e-01             214.813           3.760e+01     
  74.000         315.000            6.483e-01          -1.273e+01              38.275           4.442e-01             214.801           3.793e+01     
  73.000         315.000            6.785e-01          -1.229e+01              37.981           4.535e-01             214.795           3.829e+01     
  72.000         315.000            7.098e-01          -1.187e+01              37.715           4.631e-01             214.795           3.868e+01     
  71.000         315.000            7.423e-01          -1.147e+01              37.472           4.730e-01             214.801           3.911e+01     
  70.000         315.000            7.758e-01          -1.108e+01              37.251           4.833e-01             214.814           3.958e+01     
  69.000         315.000            8.105e-01          -1.072e+01              37.048           4.938e-01             214.832           4.000e+01     
  68.000         315.000            8.461e-01          -1.037e+01              36.864           5.046e-01             214.857           4.000e+01     
  67.000         315.000            8.827e-01          -1.003e+01              36.694           5.156e-01             214.887           4.000e+01     
  66.000         315.000            9.201e-01          -9.706e+00              36.540           5.269e-01             214.924           4.000e+01     
  65.000         315.000            9.585e-01          -9.395e+00              36.398           5.384e-01             214.967           4.000e+01     
  64.000         315.000            9.976e-01          -9.094e+00              36.269           5.501e-01             215.016           4.000e+01     
  63.000         315.000            1.037e+00          -8.805e+00              36.152           5.620e-01             215.071           4.000e+01     
  62.000         315.000            1.078e+00          -8.525e+00              36.045           5.741e-01             215.131           4.000e+01     
  61.000         315.000            1.119e+00          -8.255e+00              35.948           5.863e-01             215.198           4.000e+01     
  60.000         315.000            1.161e+00          -7.994e+00              35.860           5.987e-01             215.271           4.000e+01     
  59.000         315.000            1.204e+00          -7.741e+00              35.782           6.111e-01             215.350           4.000e+01     
  58.000         315.000            1.246e+00          -7.496e+00              35.712           6.237e-01             215.435           4.000e+01     
  57.000         315.000            1.290e+00          -7.259e+00              35.650           6.363e-01             215.525           4.000e+01     
  56.000         315.000            1.333e+00          -7.029e+00              35.596           6.490e-01             215.622           4.000e+01     
  55.000         315.000            1.377e+00          -6.806e+00              35.549           6.617e-01             215.724           4.000e+01     
  54.000         315.000            1.422e+00          -6.589e+00              35.509           6.744e-01             215.832           4.000e+01     
  53.000         315.000            1.466e+00          -6.379e+00              35.476           6.870e-01             215.945           4.000e+01     
  52.000         315.000            1.511e+00          -6.175e+00              35.449           6.997e-01             216.065           4.000e+01     
  51.000         315.000            1.556e+00          -5.977e+00              35.429           7.122e-01             216.190           4.000e+01     
  50.000         315.000            1.600e+00          -5.785e+00              35.415           7.247e-01             216.320           4.000e+01     
  49.000         315.000            1.645e+00          -5.598e+00              35.406           7.371e-01             216.456           4.000e+01     
  48.000         315.000            1.690e+00          -5.416e+00              35.404           7.493e-01             216.598           4.000e+01     
  47.000         315.000            1.734e+00          -5.239e+00              35.407           7.613e-01             216.745           4.000e+01     
  46.000         315.000            1.779e+00          -5.068e+00              35.415           7.732e-01             216.897           3.959e+01     
  45.000         315.000            1.823e+00          -4.901e+00              35.428           7.849e-01             217.055           3.869e+01     
  44.000         315.000            1.867e+00          -4.739e+00              35.446           7.963e-01             217.219           3.787e+01     
  43.000         315.000            1.910e+00          -4.581e+00              35.470           8.075e-01             217.387           3.710e+01     
  42.000         315.000            1.954e+00          -4.428e+00              35.498           8.184e-01             217.561           3.639e+01     
  41.000         315.000            1.996e+00          -4.280e+00              35.530           8.289e-01             217.739           3.572e+01     
  40.000         315.000            2.039e+00          -4.135e+00              35.567           8.392e-01             217.923           3.509e+01     
  39.000         315.000            2.080e+00          -3.995e+00              35.609           8.491e-01             218.112           3.450e+01     
  38.000         315.000            2.121e+00          -3.859e+00              35.655           8.586e-01             218.306           3.394e+01     
  37.000         315.000            2.162e+00          -3.727e+00              35.705           8.676e-01             218.505           3.340e+01     
  36.000         315.000            2.202e+00          -3.599e+00              35.759           8.763e-01             218.709           3.289e+01     
  35.000         315.000            2.241e+00          -3.475e+00              35.817           8.845e-01             218.917           3.240e+01     
  34.000         315.000            2.279e+00          -3.355e+00              35.879           8.923e-01             219.131           3.194e+01     
  33.000         315.000            2.316e+00          -3.238e+00              35.945           8.995e-01             219.349           3.149e+01     
  32.000         315.000            2.353e+00          -3.125e+00              36.014           9.062e-01             219.571           3.106e+01     
  31.000         315.000            2.388e+00          -3.016e+00              36.088           9.124e-01             219.799           3.065e+01     
  30.000         315.000            2.423e+00          -2.911e+00              36.164           9.180e-01             220.030           3.025e+01     
  29.000         315.000            2.456e+00          -2.809e+00              36.244           9.230e-01             220.267           2.987e+01     
  28.000         315.000            2.489e+00          -2.711e+00              36.328           9.274e-01             220.507           2.950e+01     
  27.000         315.000            2.520e+00          -2.617e+00              36.415           9.312e-01             220.752           2.914e+01     
  26.000         315.000            2.550e+00          -2.526e+00              36.505           9.343e-01             221.001           2.880e+01     
  25.000         315.000            2.579e+00          -2.439e+00              36.599           9.368e-01             221.255           2.846e+01     
  24.000         315.000            2.607e+00          -2.355e+00              36.695           9.385e-01             221.512           2.813e+01     
  23.000         315.000            2.634e+00          -2.274e+00              36.794           9.396e-01             221.774           2.782e+01     
  22.000         315.000            2.659e+00          -2.197e+00              36.897           9.400e-01             222.040           2.751e+01     
  21.000         315.000            2.683e+00          -2.124e+00              37.002           9.396e-01             222.309           2.721e+01     
  20.000         315.000            2.705e+00          -2.054e+00              37.110           9.384e-01             222.583           2.692e+01     
  19.000         315.000            2.726e+00          -1.987e+00              37.221           9.365e-01             222.860           2.664e+01     
  18.000         315.000            2.746e+00          -1.924e+00              37.335           9.338e-01             223.141           2.636e+01     
  17.000         315.000            2.764e+00          -1.864e+00              37.451           9.303e-01             223.426           2.609e+01     
  16.000         315.000            2.781e+00          -1.808e+00              37.570           9.260e-01             223.714           2.583e+01     
  15.000         315.000            2.796e+00          -1.755e+00              37.691           9.208e-01             224.006           2.558e+01     
  14.000         315.000            2.810e+00          -1.705e+00              37.815           9.148e-01             224.301           2.533e+01     
  13.000         315.000            2.822e+00          -1.659e+00              37.941           9.080e-01             224.600           2.508e+01     
  12.000         315.000            2.832e+00          -1.616e+00              38.069           9.003e-01             224.902           2.484e+01     
  11.000         315.000            2.841e+00          -1.577e+00              38.200           8.918e-01             225.207           2.461e+01     
  10.000         315.000            2.848e+00          -1.541e+00              38.333           8.823e-01             225.516           2.438e+01     
   9.000         315.000            2.853e+00          -1.508e+00              38.468           8.720e-01             225.827           2.416e+01     
   8.000         315.000            2.857e+00          -1.479e+00              38.605           8.608e-01             226.142           2.394e+01     
   7.000         315.000            2.859e+00          -1.453e+00              38.744           8.487e-01             226.460           2.373e+01     
   6.000         315.000            2.859e+00          -1.430e+00              38.885           8.356e-01             226.780           2.352e+01     
   5.000         315.000            2.858e+00          -1.411e+00              39.028           8.217e-01             227.104           2.331e+01     
   4.000         315.000            2.854e+00          -1.395e+00              39.173           8.069e-01             227.430           2.311e+01     
   3.000         315.000            2.849e+00          -1.383e+00              39.319           7.911e-01             227.759           2.291e+01     
   2.000         315.000            2.842e+00          -1.374e+00              39.467           7.745e-01             228.090           2.272e+01     
   1.000         315.000            2.833e+00          -1.368e+00              39.617           7.569e-01             228.424           2.253e+01     
