Theta [deg.]  Phi   [deg.]  Abs(Dir.)[dBi   ]   Abs(Theta)[dBi   ]  Phase(Theta)[deg.]  Abs(Phi  )[dBi   ]  Phase(Phi  )[deg.]  Ax.Ratio[dB    ]    
------------------------------------------------------------------------------------------------------------------------------------------------------
   0.000         135.000            3.100e+00          -6.550e-02             179.156           2.396e-01               6.958           2.333e+01     
   1.000         135.000            3.085e+00          -6.638e-02             179.312           2.116e-01               7.153           2.329e+01     
   2.000         135.000            3.068e+00          -7.092e-02             179.470           1.828e-01               7.350           2.324e+01     
   3.000         135.000            3.049e+00          -7.915e-02             179.631           1.530e-01               7.548           2.320e+01     
   4.000         135.000            3.027e+00          -9.107e-02             179.793           1.222e-01               7.749           2.316e+01     
   5.000         135.000            3.003e+00          -1.067e-01             179.958           9.057e-02               7.952           2.312e+01     
   6.000         135.000            2.977e+00          -1.260e-01             180.124           5.799e-02               8.157           2.307e+01     
   7.000         135.000            2.949e+00          -1.490e-01             180.292           2.451e-02               8.363           2.303e+01     
   8.000         135.000            2.918e+00          -1.757e-01             180.462          -9.855e-03               8.572           2.299e+01     
   9.000         135.000            2.885e+00          -2.062e-01             180.634          -4.511e-02               8.782           2.295e+01     
  10.000         135.000            2.850e+00          -2.403e-01             180.807          -8.123e-02               8.994           2.291e+01     
  11.000         135.000            2.813e+00          -2.782e-01             180.982          -1.182e-01               9.207           2.287e+01     
  12.000         135.000            2.773e+00          -3.197e-01             181.159          -1.560e-01               9.422           2.283e+01     
  13.000         135.000            2.731e+00          -3.651e-01             181.337          -1.947e-01               9.639           2.279e+01     
  14.000         135.000            2.687e+00          -4.141e-01             181.517          -2.341e-01               9.857           2.275e+01     
  15.000         135.000            2.641e+00          -4.669e-01             181.698          -2.744e-01              10.076           2.271e+01     
  16.000         135.000            2.592e+00          -5.235e-01             181.880          -3.154e-01              10.297           2.267e+01     
  17.000         135.000            2.541e+00          -5.838e-01             182.064          -3.572e-01              10.519           2.263e+01     
  18.000         135.000            2.488e+00          -6.479e-01             182.249          -3.997e-01              10.742           2.259e+01     
  19.000         135.000            2.433e+00          -7.158e-01             182.436          -4.430e-01              10.966           2.255e+01     
  20.000         135.000            2.376e+00          -7.875e-01             182.623          -4.869e-01              11.191           2.251e+01     
  21.000         135.000            2.316e+00          -8.629e-01             182.811          -5.316e-01              11.417           2.248e+01     
  22.000         135.000            2.255e+00          -9.423e-01             183.001          -5.769e-01              11.644           2.244e+01     
  23.000         135.000            2.191e+00          -1.025e+00             183.191          -6.228e-01              11.872           2.240e+01     
  24.000         135.000            2.125e+00          -1.112e+00             183.383          -6.694e-01              12.101           2.237e+01     
  25.000         135.000            2.057e+00          -1.203e+00             183.575          -7.165e-01              12.330           2.233e+01     
  26.000         135.000            1.987e+00          -1.298e+00             183.768          -7.642e-01              12.560           2.230e+01     
  27.000         135.000            1.915e+00          -1.397e+00             183.961          -8.125e-01              12.790           2.227e+01     
  28.000         135.000            1.842e+00          -1.500e+00             184.155          -8.613e-01              13.021           2.224e+01     
  29.000         135.000            1.766e+00          -1.606e+00             184.350          -9.105e-01              13.251           2.220e+01     
  30.000         135.000            1.688e+00          -1.717e+00             184.545          -9.603e-01              13.483           2.217e+01     
  31.000         135.000            1.609e+00          -1.832e+00             184.740          -1.010e+00              13.714           2.215e+01     
  32.000         135.000            1.527e+00          -1.950e+00             184.936          -1.061e+00              13.945           2.212e+01     
  33.000         135.000            1.444e+00          -2.073e+00             185.132          -1.112e+00              14.177           2.209e+01     
  34.000         135.000            1.359e+00          -2.200e+00             185.328          -1.163e+00              14.408           2.207e+01     
  35.000         135.000            1.273e+00          -2.332e+00             185.524          -1.215e+00              14.639           2.204e+01     
  36.000         135.000            1.185e+00          -2.467e+00             185.719          -1.267e+00              14.870           2.202e+01     
  37.000         135.000            1.095e+00          -2.607e+00             185.915          -1.319e+00              15.100           2.200e+01     
  38.000         135.000            1.003e+00          -2.751e+00             186.110          -1.372e+00              15.330           2.198e+01     
  39.000         135.000            9.106e-01          -2.900e+00             186.305          -1.424e+00              15.559           2.196e+01     
  40.000         135.000            8.163e-01          -3.053e+00             186.499          -1.477e+00              15.787           2.195e+01     
  41.000         135.000            7.206e-01          -3.210e+00             186.693          -1.530e+00              16.015           2.194e+01     
  42.000         135.000            6.236e-01          -3.373e+00             186.886          -1.584e+00              16.242           2.193e+01     
  43.000         135.000            5.254e-01          -3.540e+00             187.079          -1.637e+00              16.468           2.192e+01     
  44.000         135.000            4.259e-01          -3.712e+00             187.270          -1.690e+00              16.693           2.192e+01     
  45.000         135.000            3.253e-01          -3.888e+00             187.460          -1.744e+00              16.917           2.191e+01     
  46.000         135.000            2.237e-01          -4.070e+00             187.649          -1.797e+00              17.139           2.192e+01     
  47.000         135.000            1.211e-01          -4.257e+00             187.837          -1.850e+00              17.360           2.192e+01     
  48.000         135.000            1.751e-02          -4.450e+00             188.023          -1.904e+00              17.580           2.193e+01     
  49.000         135.000           -8.688e-02          -4.648e+00             188.208          -1.957e+00              17.798           2.194e+01     
  50.000         135.000           -1.920e-01          -4.851e+00             188.391          -2.010e+00              18.015           2.196e+01     
  51.000         135.000           -2.978e-01          -5.060e+00             188.572          -2.063e+00              18.230           2.198e+01     
  52.000         135.000           -4.042e-01          -5.276e+00             188.751          -2.116e+00              18.443           2.200e+01     
  53.000         135.000           -5.111e-01          -5.497e+00             188.928          -2.168e+00              18.654           2.203e+01     
  54.000         135.000           -6.184e-01          -5.725e+00             189.103          -2.221e+00              18.863           2.207e+01     
  55.000         135.000           -7.259e-01          -5.960e+00             189.275          -2.273e+00              19.070           2.211e+01     
  56.000         135.000           -8.337e-01          -6.201e+00             189.444          -2.325e+00              19.275           2.216e+01     
  57.000         135.000           -9.416e-01          -6.450e+00             189.611          -2.376e+00              19.478           2.221e+01     
  58.000         135.000           -1.049e+00          -6.706e+00             189.774          -2.427e+00              19.678           2.227e+01     
  59.000         135.000           -1.157e+00          -6.970e+00             189.934          -2.478e+00              19.876           2.234e+01     
  60.000         135.000           -1.265e+00          -7.243e+00             190.091          -2.528e+00              20.071           2.242e+01     
  61.000         135.000           -1.372e+00          -7.524e+00             190.244          -2.578e+00              20.264           2.250e+01     
  62.000         135.000           -1.478e+00          -7.815e+00             190.393          -2.627e+00              20.454           2.259e+01     
  63.000         135.000           -1.584e+00          -8.116e+00             190.537          -2.676e+00              20.641           2.269e+01     
  64.000         135.000           -1.690e+00          -8.426e+00             190.678          -2.724e+00              20.825           2.281e+01     
  65.000         135.000           -1.794e+00          -8.748e+00             190.813          -2.772e+00              21.007           2.293e+01     
  66.000         135.000           -1.898e+00          -9.082e+00             190.943          -2.819e+00              21.185           2.306e+01     
  67.000         135.000           -2.000e+00          -9.428e+00             191.067          -2.866e+00              21.360           2.321e+01     
  68.000         135.000           -2.101e+00          -9.788e+00             191.186          -2.912e+00              21.532           2.337e+01     
  69.000         135.000           -2.200e+00          -1.016e+01             191.298          -2.957e+00              21.701           2.355e+01     
  70.000         135.000           -2.298e+00          -1.055e+01             191.403          -3.001e+00              21.866           2.374e+01     
  71.000         135.000           -2.394e+00          -1.096e+01             191.500          -3.045e+00              22.028           2.395e+01     
  72.000         135.000           -2.489e+00          -1.139e+01             191.589          -3.088e+00              22.186           2.417e+01     
  73.000         135.000           -2.581e+00          -1.183e+01             191.668          -3.130e+00              22.341           2.442e+01     
  74.000         135.000           -2.671e+00          -1.230e+01             191.737          -3.171e+00              22.492           2.468e+01     
  75.000         135.000           -2.759e+00          -1.280e+01             191.795          -3.212e+00              22.639           2.498e+01     
  76.000         135.000           -2.844e+00          -1.332e+01             191.840          -3.252e+00              22.783           2.529e+01     
  77.000         135.000           -2.926e+00          -1.387e+01             191.870          -3.290e+00              22.922           2.564e+01     
  78.000         135.000           -3.006e+00          -1.446e+01             191.882          -3.328e+00              23.058           2.601e+01     
  79.000         135.000           -3.083e+00          -1.509e+01             191.874          -3.365e+00              23.190           2.642e+01     
  80.000         135.000           -3.157e+00          -1.577e+01             191.842          -3.401e+00              23.318           2.687e+01     
  81.000         135.000           -3.227e+00          -1.650e+01             191.781          -3.436e+00              23.441           2.736e+01     
  82.000         135.000           -3.294e+00          -1.730e+01             191.684          -3.470e+00              23.561           2.790e+01     
  83.000         135.000           -3.357e+00          -1.817e+01             191.540          -3.503e+00              23.676           2.849e+01     
  84.000         135.000           -3.417e+00          -1.913e+01             191.335          -3.535e+00              23.787           2.915e+01     
  85.000         135.000           -3.473e+00          -2.021e+01             191.047          -3.566e+00              23.894           2.988e+01     
  86.000         135.000           -3.525e+00          -2.144e+01             190.640          -3.596e+00              23.996           3.071e+01     
  87.000         135.000           -3.573e+00          -2.286e+01             190.054          -3.624e+00              24.094           3.164e+01     
  88.000         135.000           -3.617e+00          -2.456e+01             189.179          -3.652e+00              24.188           3.271e+01     
  89.000         135.000           -3.656e+00          -2.666e+01             187.782          -3.678e+00              24.277           3.395e+01     
  90.000         135.000           -3.692e+00          -2.940e+01             185.291          -3.704e+00              24.361           3.543e+01     
  91.000         135.000           -3.723e+00          -3.334e+01             179.842          -3.728e+00              24.441           3.724e+01     
  92.000         135.000           -3.749e+00          -4.011e+01             160.719          -3.750e+00              24.516           3.955e+01     
  93.000         135.000           -3.772e+00          -4.302e+01              66.479          -3.772e+00              24.587           4.000e+01     
  94.000         135.000           -3.789e+00          -3.499e+01              33.049          -3.793e+00              24.653           4.000e+01     
  95.000         135.000           -3.802e+00          -3.048e+01              25.632          -3.812e+00              24.714           4.000e+01     
  96.000         135.000           -3.811e+00          -2.749e+01              22.543          -3.830e+00              24.771           4.000e+01     
  97.000         135.000           -3.815e+00          -2.527e+01              20.867          -3.846e+00              24.822           4.000e+01     
  98.000         135.000           -3.815e+00          -2.350e+01              19.820          -3.862e+00              24.869           4.000e+01     
  99.000         135.000           -3.810e+00          -2.203e+01              19.105          -3.876e+00              24.912           3.819e+01     
 100.000         135.000           -3.801e+00          -2.078e+01              18.586          -3.889e+00              24.949           3.617e+01     
 101.000         135.000           -3.787e+00          -1.969e+01              18.189          -3.900e+00              24.982           3.456e+01     
 102.000         135.000           -3.770e+00          -1.872e+01              17.876          -3.911e+00              25.010           3.321e+01     
 103.000         135.000           -3.748e+00          -1.786e+01              17.619          -3.920e+00              25.033           3.206e+01     
 104.000         135.000           -3.721e+00          -1.707e+01              17.404          -3.927e+00              25.051           3.106e+01     
 105.000         135.000           -3.691e+00          -1.635e+01              17.218          -3.933e+00              25.065           3.019e+01     
 106.000         135.000           -3.657e+00          -1.569e+01              17.055          -3.938e+00              25.073           2.941e+01     
 107.000         135.000           -3.619e+00          -1.507e+01              16.908          -3.942e+00              25.077           2.871e+01     
 108.000         135.000           -3.578e+00          -1.450e+01              16.773          -3.944e+00              25.076           2.808e+01     
 109.000         135.000           -3.533e+00          -1.396e+01              16.647          -3.945e+00              25.071           2.751e+01     
 110.000         135.000           -3.484e+00          -1.346e+01              16.528          -3.945e+00              25.060           2.699e+01     
 111.000         135.000           -3.433e+00          -1.298e+01              16.414          -3.943e+00              25.045           2.652e+01     
 112.000         135.000           -3.378e+00          -1.253e+01              16.304          -3.940e+00              25.025           2.608e+01     
 113.000         135.000           -3.320e+00          -1.211e+01              16.196          -3.936e+00              25.000           2.568e+01     
 114.000         135.000           -3.259e+00          -1.170e+01              16.090          -3.930e+00              24.971           2.532e+01     
 115.000         135.000           -3.196e+00          -1.132e+01              15.984          -3.923e+00              24.937           2.498e+01     
 116.000         135.000           -3.130e+00          -1.095e+01              15.878          -3.914e+00              24.898           2.467e+01     
 117.000         135.000           -3.061e+00          -1.059e+01              15.772          -3.905e+00              24.855           2.438e+01     
 118.000         135.000           -2.991e+00          -1.026e+01              15.665          -3.894e+00              24.808           2.411e+01     
 119.000         135.000           -2.918e+00          -9.932e+00              15.557          -3.881e+00              24.756           2.387e+01     
 120.000         135.000           -2.843e+00          -9.619e+00              15.448          -3.868e+00              24.699           2.364e+01     
 121.000         135.000           -2.767e+00          -9.319e+00              15.337          -3.853e+00              24.638           2.343e+01     
 122.000         135.000           -2.689e+00          -9.029e+00              15.225          -3.836e+00              24.573           2.323e+01     
 123.000         135.000           -2.609e+00          -8.750e+00              15.110          -3.819e+00              24.504           2.305e+01     
 124.000         135.000           -2.528e+00          -8.480e+00              14.994          -3.800e+00              24.430           2.289e+01     
 125.000         135.000           -2.445e+00          -8.219e+00              14.876          -3.780e+00              24.352           2.273e+01     
 126.000         135.000           -2.362e+00          -7.967e+00              14.755          -3.759e+00              24.271           2.259e+01     
 127.000         135.000           -2.278e+00          -7.723e+00              14.633          -3.737e+00              24.185           2.246e+01     
 128.000         135.000           -2.192e+00          -7.486e+00              14.508          -3.713e+00              24.095           2.233e+01     
 129.000         135.000           -2.106e+00          -7.257e+00              14.381          -3.689e+00              24.002           2.222e+01     
 130.000         135.000           -2.019e+00          -7.035e+00              14.252          -3.663e+00              23.904           2.212e+01     
 131.000         135.000           -1.932e+00          -6.819e+00              14.121          -3.636e+00              23.803           2.202e+01     
 132.000         135.000           -1.844e+00          -6.610e+00              13.988          -3.608e+00              23.698           2.193e+01     
 133.000         135.000           -1.757e+00          -6.407e+00              13.853          -3.579e+00              23.590           2.185e+01     
 134.000         135.000           -1.668e+00          -6.210e+00              13.715          -3.549e+00              23.478           2.178e+01     
 135.000         135.000           -1.580e+00          -6.018e+00              13.576          -3.518e+00              23.363           2.171e+01     
 136.000         135.000           -1.492e+00          -5.832e+00              13.434          -3.486e+00              23.245           2.165e+01     
 137.000         135.000           -1.404e+00          -5.651e+00              13.291          -3.452e+00              23.123           2.159e+01     
 138.000         135.000           -1.316e+00          -5.476e+00              13.146          -3.418e+00              22.999           2.154e+01     
 139.000         135.000           -1.228e+00          -5.305e+00              12.999          -3.383e+00              22.871           2.149e+01     
 140.000         135.000           -1.141e+00          -5.139e+00              12.850          -3.348e+00              22.740           2.144e+01     
 141.000         135.000           -1.055e+00          -4.978e+00              12.699          -3.311e+00              22.607           2.140e+01     
 142.000         135.000           -9.684e-01          -4.821e+00              12.547          -3.273e+00              22.470           2.137e+01     
 143.000         135.000           -8.828e-01          -4.669e+00              12.393          -3.235e+00              22.331           2.133e+01     
 144.000         135.000           -7.979e-01          -4.521e+00              12.238          -3.196e+00              22.190           2.131e+01     
 145.000         135.000           -7.138e-01          -4.378e+00              12.081          -3.156e+00              22.046           2.128e+01     
 146.000         135.000           -6.305e-01          -4.238e+00              11.923          -3.116e+00              21.899           2.126e+01     
 147.000         135.000           -5.482e-01          -4.103e+00              11.763          -3.075e+00              21.751           2.123e+01     
 148.000         135.000           -4.668e-01          -3.972e+00              11.603          -3.033e+00              21.600           2.121e+01     
 149.000         135.000           -3.864e-01          -3.845e+00              11.440          -2.991e+00              21.447           2.120e+01     
 150.000         135.000           -3.071e-01          -3.722e+00              11.277          -2.948e+00              21.291           2.118e+01     
 151.000         135.000           -2.289e-01          -3.602e+00              11.112          -2.904e+00              21.134           2.117e+01     
 152.000         135.000           -1.520e-01          -3.487e+00              10.947          -2.860e+00              20.975           2.116e+01     
 153.000         135.000           -7.629e-02          -3.375e+00              10.780          -2.816e+00              20.815           2.115e+01     
 154.000         135.000           -1.890e-03          -3.267e+00              10.612          -2.771e+00              20.652           2.114e+01     
 155.000         135.000            7.116e-02          -3.163e+00              10.444          -2.726e+00              20.488           2.113e+01     
 156.000         135.000            1.428e-01          -3.062e+00              10.274          -2.681e+00              20.323           2.113e+01     
 157.000         135.000            2.130e-01          -2.966e+00              10.103          -2.635e+00              20.156           2.112e+01     
 158.000         135.000            2.818e-01          -2.872e+00               9.932          -2.589e+00              19.987           2.112e+01     
 159.000         135.000            3.490e-01          -2.783e+00               9.760          -2.543e+00              19.817           2.111e+01     
 160.000         135.000            4.147e-01          -2.697e+00               9.587          -2.497e+00              19.646           2.111e+01     
 161.000         135.000            4.787e-01          -2.615e+00               9.413          -2.450e+00              19.474           2.111e+01     
 162.000         135.000            5.412e-01          -2.536e+00               9.238          -2.403e+00              19.301           2.111e+01     
 163.000         135.000            6.020e-01          -2.460e+00               9.063          -2.357e+00              19.127           2.111e+01     
 164.000         135.000            6.611e-01          -2.389e+00               8.887          -2.310e+00              18.951           2.111e+01     
 165.000         135.000            7.185e-01          -2.321e+00               8.710          -2.263e+00              18.775           2.110e+01     
 166.000         135.000            7.741e-01          -2.256e+00               8.533          -2.217e+00              18.598           2.110e+01     
 167.000         135.000            8.280e-01          -2.195e+00               8.355          -2.170e+00              18.420           2.110e+01     
 168.000         135.000            8.801e-01          -2.137e+00               8.176          -2.123e+00              18.242           2.110e+01     
 169.000         135.000            9.304e-01          -2.083e+00               7.997          -2.077e+00              18.063           2.110e+01     
 170.000         135.000            9.788e-01          -2.032e+00               7.817          -2.031e+00              17.883           2.110e+01     
 171.000         135.000            1.025e+00          -1.985e+00               7.636          -1.985e+00              17.702           2.110e+01     
 172.000         135.000            1.070e+00          -1.942e+00               7.455          -1.939e+00              17.521           2.110e+01     
 173.000         135.000            1.113e+00          -1.901e+00               7.273          -1.893e+00              17.340           2.110e+01     
 174.000         135.000            1.154e+00          -1.865e+00               7.091          -1.848e+00              17.158           2.110e+01     
 175.000         135.000            1.193e+00          -1.832e+00               6.908          -1.803e+00              16.976           2.110e+01     
 176.000         135.000            1.230e+00          -1.802e+00               6.724          -1.758e+00              16.793           2.110e+01     
 177.000         135.000            1.266e+00          -1.776e+00               6.540          -1.714e+00              16.610           2.110e+01     
 178.000         135.000            1.299e+00          -1.753e+00               6.355          -1.670e+00              16.427           2.110e+01     
 179.000         135.000            1.330e+00          -1.734e+00               6.170          -1.627e+00              16.243           2.110e+01     
 180.000         135.000            1.360e+00          -1.718e+00               5.984          -1.584e+00              16.060           2.110e+01     
 179.000         315.000            1.387e+00          -1.706e+00             185.797          -1.541e+00             195.876           2.109e+01     
 178.000         315.000            1.413e+00          -1.697e+00             185.609          -1.499e+00             195.692           2.109e+01     
 177.000         315.000            1.437e+00          -1.692e+00             185.421          -1.458e+00             195.508           2.109e+01     
 176.000         315.000            1.459e+00          -1.691e+00             185.232          -1.417e+00             195.323           2.109e+01     
 175.000         315.000            1.479e+00          -1.693e+00             185.042          -1.376e+00             195.139           2.108e+01     
 174.000         315.000            1.497e+00          -1.698e+00             184.852          -1.337e+00             194.954           2.108e+01     
 173.000         315.000            1.513e+00          -1.707e+00             184.660          -1.297e+00             194.770           2.108e+01     
 172.000         315.000            1.527e+00          -1.720e+00             184.468          -1.259e+00             194.585           2.107e+01     
 171.000         315.000            1.540e+00          -1.736e+00             184.275          -1.221e+00             194.401           2.107e+01     
 170.000         315.000            1.550e+00          -1.755e+00             184.081          -1.184e+00             194.216           2.106e+01     
 169.000         315.000            1.559e+00          -1.779e+00             183.886          -1.147e+00             194.032           2.106e+01     
 168.000         315.000            1.566e+00          -1.806e+00             183.691          -1.111e+00             193.847           2.105e+01     
 167.000         315.000            1.571e+00          -1.836e+00             183.494          -1.076e+00             193.663           2.105e+01     
 166.000         315.000            1.575e+00          -1.870e+00             183.296          -1.041e+00             193.479           2.104e+01     
 165.000         315.000            1.576e+00          -1.908e+00             183.098          -1.007e+00             193.295           2.104e+01     
 164.000         315.000            1.576e+00          -1.949e+00             182.898          -9.737e-01             193.111           2.103e+01     
 163.000         315.000            1.575e+00          -1.994e+00             182.697          -9.411e-01             192.927           2.103e+01     
 162.000         315.000            1.571e+00          -2.043e+00             182.495          -9.093e-01             192.743           2.102e+01     
 161.000         315.000            1.566e+00          -2.095e+00             182.292          -8.782e-01             192.559           2.102e+01     
 160.000         315.000            1.560e+00          -2.151e+00             182.088          -8.478e-01             192.376           2.101e+01     
 159.000         315.000            1.551e+00          -2.211e+00             181.883          -8.181e-01             192.193           2.101e+01     
 158.000         315.000            1.542e+00          -2.274e+00             181.676          -7.892e-01             192.010           2.100e+01     
 157.000         315.000            1.531e+00          -2.341e+00             181.468          -7.610e-01             191.828           2.100e+01     
 156.000         315.000            1.518e+00          -2.413e+00             181.259          -7.335e-01             191.645           2.099e+01     
 155.000         315.000            1.504e+00          -2.487e+00             181.048          -7.068e-01             191.463           2.099e+01     
 154.000         315.000            1.488e+00          -2.566e+00             180.836          -6.807e-01             191.281           2.099e+01     
 153.000         315.000            1.472e+00          -2.649e+00             180.623          -6.554e-01             191.100           2.098e+01     
 152.000         315.000            1.454e+00          -2.735e+00             180.408          -6.308e-01             190.919           2.098e+01     
 151.000         315.000            1.434e+00          -2.826e+00             180.191          -6.069e-01             190.738           2.098e+01     
 150.000         315.000            1.414e+00          -2.920e+00             179.973          -5.837e-01             190.557           2.098e+01     
 149.000         315.000            1.392e+00          -3.019e+00             179.753          -5.612e-01             190.377           2.098e+01     
 148.000         315.000            1.369e+00          -3.121e+00             179.532          -5.393e-01             190.198           2.098e+01     
 147.000         315.000            1.345e+00          -3.228e+00             179.309          -5.182e-01             190.018           2.099e+01     
 146.000         315.000            1.320e+00          -3.339e+00             179.084          -4.977e-01             189.840           2.099e+01     
 145.000         315.000            1.294e+00          -3.454e+00             178.857          -4.778e-01             189.661           2.099e+01     
 144.000         315.000            1.268e+00          -3.574e+00             178.628          -4.586e-01             189.484           2.100e+01     
 143.000         315.000            1.240e+00          -3.697e+00             178.397          -4.400e-01             189.306           2.101e+01     
 142.000         315.000            1.212e+00          -3.826e+00             178.164          -4.221e-01             189.130           2.102e+01     
 141.000         315.000            1.182e+00          -3.959e+00             177.929          -4.047e-01             188.954           2.103e+01     
 140.000         315.000            1.153e+00          -4.096e+00             177.691          -3.879e-01             188.778           2.104e+01     
 139.000         315.000            1.122e+00          -4.238e+00             177.451          -3.717e-01             188.603           2.106e+01     
 138.000         315.000            1.091e+00          -4.385e+00             177.208          -3.561e-01             188.429           2.107e+01     
 137.000         315.000            1.059e+00          -4.537e+00             176.963          -3.410e-01             188.256           2.109e+01     
 136.000         315.000            1.027e+00          -4.694e+00             176.715          -3.264e-01             188.083           2.111e+01     
 135.000         315.000            9.949e-01          -4.857e+00             176.464          -3.123e-01             187.911           2.114e+01     
 134.000         315.000            9.621e-01          -5.024e+00             176.210          -2.987e-01             187.740           2.117e+01     
 133.000         315.000            9.290e-01          -5.198e+00             175.953          -2.856e-01             187.570           2.120e+01     
 132.000         315.000            8.957e-01          -5.376e+00             175.692          -2.730e-01             187.400           2.123e+01     
 131.000         315.000            8.623e-01          -5.561e+00             175.428          -2.608e-01             187.232           2.127e+01     
 130.000         315.000            8.287e-01          -5.752e+00             175.159          -2.490e-01             187.064           2.130e+01     
 129.000         315.000            7.952e-01          -5.949e+00             174.886          -2.376e-01             186.898           2.135e+01     
 128.000         315.000            7.616e-01          -6.152e+00             174.609          -2.266e-01             186.732           2.139e+01     
 127.000         315.000            7.282e-01          -6.363e+00             174.327          -2.159e-01             186.568           2.145e+01     
 126.000         315.000            6.950e-01          -6.580e+00             174.039          -2.056e-01             186.405           2.150e+01     
 125.000         315.000            6.619e-01          -6.805e+00             173.745          -1.956e-01             186.243           2.156e+01     
 124.000         315.000            6.292e-01          -7.038e+00             173.446          -1.859e-01             186.082           2.162e+01     
 123.000         315.000            5.968e-01          -7.279e+00             173.139          -1.765e-01             185.922           2.169e+01     
 122.000         315.000            5.648e-01          -7.528e+00             172.825          -1.674e-01             185.764           2.177e+01     
 121.000         315.000            5.333e-01          -7.786e+00             172.503          -1.585e-01             185.607           2.184e+01     
 120.000         315.000            5.024e-01          -8.054e+00             172.171          -1.498e-01             185.451           2.193e+01     
 119.000         315.000            4.720e-01          -8.332e+00             171.829          -1.413e-01             185.297           2.202e+01     
 118.000         315.000            4.424e-01          -8.620e+00             171.476          -1.330e-01             185.144           2.212e+01     
 117.000         315.000            4.134e-01          -8.920e+00             171.111          -1.249e-01             184.993           2.222e+01     
 116.000         315.000            3.853e-01          -9.232e+00             170.732          -1.170e-01             184.844           2.233e+01     
 115.000         315.000            3.580e-01          -9.557e+00             170.337          -1.091e-01             184.696           2.244e+01     
 114.000         315.000            3.316e-01          -9.897e+00             169.924          -1.014e-01             184.550           2.257e+01     
 113.000         315.000            3.061e-01          -1.025e+01             169.490          -9.378e-02             184.405           2.270e+01     
 112.000         315.000            2.817e-01          -1.062e+01             169.034          -8.623e-02             184.263           2.284e+01     
 111.000         315.000            2.583e-01          -1.101e+01             168.551          -7.874e-02             184.122           2.298e+01     
 110.000         315.000            2.361e-01          -1.142e+01             168.038          -7.130e-02             183.983           2.314e+01     
 109.000         315.000            2.151e-01          -1.185e+01             167.489          -6.388e-02             183.846           2.331e+01     
 108.000         315.000            1.953e-01          -1.230e+01             166.898          -5.647e-02             183.711           2.348e+01     
 107.000         315.000            1.768e-01          -1.278e+01             166.259          -4.906e-02             183.578           2.367e+01     
 106.000         315.000            1.596e-01          -1.328e+01             165.561          -4.163e-02             183.448           2.386e+01     
 105.000         315.000            1.437e-01          -1.382e+01             164.794          -3.417e-02             183.319           2.407e+01     
 104.000         315.000            1.293e-01          -1.440e+01             163.941          -2.667e-02             183.193           2.429e+01     
 103.000         315.000            1.164e-01          -1.501e+01             162.985          -1.910e-02             183.068           2.452e+01     
 102.000         315.000            1.049e-01          -1.567e+01             161.900          -1.146e-02             182.947           2.476e+01     
 101.000         315.000            9.500e-02          -1.639e+01             160.651          -3.740e-03             182.827           2.502e+01     
 100.000         315.000            8.665e-02          -1.716e+01             159.195           4.081e-03             182.710           2.529e+01     
  99.000         315.000            7.989e-02          -1.801e+01             157.463           1.200e-02             182.595           2.558e+01     
  98.000         315.000            7.476e-02          -1.895e+01             155.364           2.004e-02             182.483           2.588e+01     
  97.000         315.000            7.129e-02          -1.998e+01             152.761           2.820e-02             182.373           2.620e+01     
  96.000         315.000            6.950e-02          -2.114e+01             149.441           3.649e-02             182.266           2.654e+01     
  95.000         315.000            6.940e-02          -2.243e+01             145.072           4.493e-02             182.162           2.690e+01     
  94.000         315.000            7.103e-02          -2.388e+01             139.112           5.350e-02             182.060           2.728e+01     
  93.000         315.000            7.439e-02          -2.546e+01             130.684           6.224e-02             181.961           2.769e+01     
  92.000         315.000            7.950e-02          -2.707e+01             118.489           7.113e-02             181.865           2.812e+01     
  91.000         315.000            8.636e-02          -2.838e+01             101.308           8.018e-02             181.772           2.858e+01     
  90.000         315.000            9.499e-02          -2.881e+01              80.153           8.939e-02             181.681           2.907e+01     
  89.000         315.000            1.054e-01          -2.808e+01              59.715           9.878e-02             181.593           2.960e+01     
  88.000         315.000            1.175e-01          -2.662e+01              43.903           1.083e-01             181.509           3.016e+01     
  87.000         315.000            1.315e-01          -2.498e+01              32.857           1.181e-01             181.427           3.077e+01     
  86.000         315.000            1.472e-01          -2.341e+01              25.209           1.280e-01             181.348           3.143e+01     
  85.000         315.000            1.646e-01          -2.198e+01              19.765           1.380e-01             181.272           3.214e+01     
  84.000         315.000            1.838e-01          -2.071e+01              15.749           1.483e-01             181.200           3.292e+01     
  83.000         315.000            2.047e-01          -1.957e+01              12.686           1.587e-01             181.130           3.378e+01     
  82.000         315.000            2.273e-01          -1.854e+01              10.279           1.693e-01             181.064           3.473e+01     
  81.000         315.000            2.516e-01          -1.761e+01               8.342           1.800e-01             181.001           3.580e+01     
  80.000         315.000            2.775e-01          -1.677e+01               6.751           1.909e-01             180.941           3.702e+01     
  79.000         315.000            3.051e-01          -1.599e+01               5.421           2.019e-01             180.884           3.843e+01     
  78.000         315.000            3.343e-01          -1.527e+01               4.291           2.131e-01             180.831           4.000e+01     
  77.000         315.000            3.651e-01          -1.460e+01               3.321           2.244e-01             180.780           4.000e+01     
  76.000         315.000            3.975e-01          -1.398e+01               2.479           2.359e-01             180.734           4.000e+01     
  75.000         315.000            4.313e-01          -1.339e+01               1.740           2.475e-01             180.690           4.000e+01     
  74.000         315.000            4.666e-01          -1.285e+01               1.088           2.592e-01             180.650           4.000e+01     
  73.000         315.000            5.033e-01          -1.233e+01               0.509           2.710e-01             180.613           4.000e+01     
  72.000         315.000            5.414e-01          -1.184e+01             359.991           2.829e-01             180.580           4.000e+01     
  71.000         315.000            5.808e-01          -1.138e+01             359.525           2.948e-01             180.550           4.000e+01     
  70.000         315.000            6.216e-01          -1.093e+01             359.105           3.069e-01             180.523           4.000e+01     
  69.000         315.000            6.635e-01          -1.051e+01             358.724           3.190e-01             180.500           4.000e+01     
  68.000         315.000            7.067e-01          -1.011e+01             358.379           3.311e-01             180.480           3.991e+01     
  67.000         315.000            7.510e-01          -9.726e+00             358.064           3.433e-01             180.464           3.845e+01     
  66.000         315.000            7.963e-01          -9.357e+00             357.777           3.554e-01             180.451           3.722e+01     
  65.000         315.000            8.427e-01          -9.003e+00             357.515           3.676e-01             180.442           3.616e+01     
  64.000         315.000            8.900e-01          -8.663e+00             357.276           3.798e-01             180.436           3.523e+01     
  63.000         315.000            9.382e-01          -8.335e+00             357.056           3.919e-01             180.434           3.441e+01     
  62.000         315.000            9.873e-01          -8.020e+00             356.856           4.040e-01             180.435           3.368e+01     
  61.000         315.000            1.037e+00          -7.715e+00             356.672           4.160e-01             180.440           3.302e+01     
  60.000         315.000            1.088e+00          -7.421e+00             356.505           4.279e-01             180.448           3.242e+01     
  59.000         315.000            1.139e+00          -7.137e+00             356.352           4.397e-01             180.460           3.187e+01     
  58.000         315.000            1.191e+00          -6.863e+00             356.212           4.514e-01             180.475           3.136e+01     
  57.000         315.000            1.243e+00          -6.597e+00             356.085           4.629e-01             180.494           3.090e+01     
  56.000         315.000            1.296e+00          -6.340e+00             355.970           4.743e-01             180.516           3.047e+01     
  55.000         315.000            1.349e+00          -6.090e+00             355.867           4.855e-01             180.542           3.007e+01     
  54.000         315.000            1.403e+00          -5.849e+00             355.774           4.964e-01             180.571           2.970e+01     
  53.000         315.000            1.456e+00          -5.614e+00             355.690           5.072e-01             180.604           2.935e+01     
  52.000         315.000            1.510e+00          -5.387e+00             355.617           5.177e-01             180.641           2.903e+01     
  51.000         315.000            1.564e+00          -5.166e+00             355.552           5.280e-01             180.680           2.873e+01     
  50.000         315.000            1.618e+00          -4.952e+00             355.496           5.379e-01             180.724           2.845e+01     
  49.000         315.000            1.673e+00          -4.744e+00             355.448           5.476e-01             180.771           2.818e+01     
  48.000         315.000            1.727e+00          -4.542e+00             355.407           5.569e-01             180.821           2.793e+01     
  47.000         315.000            1.781e+00          -4.346e+00             355.374           5.659e-01             180.875           2.769e+01     
  46.000         315.000            1.834e+00          -4.155e+00             355.349           5.745e-01             180.932           2.747e+01     
  45.000         315.000            1.888e+00          -3.970e+00             355.330           5.826e-01             180.992           2.726e+01     
  44.000         315.000            1.941e+00          -3.790e+00             355.318           5.904e-01             181.056           2.707e+01     
  43.000         315.000            1.993e+00          -3.616e+00             355.312           5.978e-01             181.124           2.688e+01     
  42.000         315.000            2.046e+00          -3.446e+00             355.312           6.046e-01             181.195           2.670e+01     
  41.000         315.000            2.097e+00          -3.281e+00             355.319           6.110e-01             181.269           2.653e+01     
  40.000         315.000            2.148e+00          -3.122e+00             355.331           6.169e-01             181.347           2.637e+01     
  39.000         315.000            2.199e+00          -2.966e+00             355.348           6.223e-01             181.428           2.622e+01     
  38.000         315.000            2.249e+00          -2.816e+00             355.372           6.271e-01             181.512           2.608e+01     
  37.000         315.000            2.297e+00          -2.670e+00             355.400           6.314e-01             181.599           2.594e+01     
  36.000         315.000            2.346e+00          -2.528e+00             355.433           6.350e-01             181.690           2.581e+01     
  35.000         315.000            2.393e+00          -2.391e+00             355.472           6.381e-01             181.784           2.569e+01     
  34.000         315.000            2.439e+00          -2.258e+00             355.515           6.405e-01             181.882           2.557e+01     
  33.000         315.000            2.484e+00          -2.130e+00             355.563           6.423e-01             181.983           2.546e+01     
  32.000         315.000            2.528e+00          -2.005e+00             355.615           6.434e-01             182.086           2.535e+01     
  31.000         315.000            2.571e+00          -1.885e+00             355.672           6.438e-01             182.194           2.525e+01     
  30.000         315.000            2.613e+00          -1.769e+00             355.733           6.435e-01             182.304           2.515e+01     
  29.000         315.000            2.654e+00          -1.657e+00             355.798           6.425e-01             182.417           2.506e+01     
  28.000         315.000            2.693e+00          -1.548e+00             355.868           6.408e-01             182.534           2.497e+01     
  27.000         315.000            2.731e+00          -1.444e+00             355.941           6.383e-01             182.654           2.488e+01     
  26.000         315.000            2.768e+00          -1.344e+00             356.018           6.350e-01             182.776           2.480e+01     
  25.000         315.000            2.803e+00          -1.248e+00             356.100           6.310e-01             182.902           2.472e+01     
  24.000         315.000            2.836e+00          -1.155e+00             356.185           6.261e-01             183.031           2.465e+01     
  23.000         315.000            2.869e+00          -1.067e+00             356.273           6.204e-01             183.163           2.457e+01     
  22.000         315.000            2.899e+00          -9.821e-01             356.365           6.139e-01             183.298           2.450e+01     
  21.000         315.000            2.928e+00          -9.012e-01             356.461           6.065e-01             183.436           2.443e+01     
  20.000         315.000            2.955e+00          -8.241e-01             356.560           5.983e-01             183.576           2.437e+01     
  19.000         315.000            2.981e+00          -7.508e-01             356.662           5.891e-01             183.720           2.430e+01     
  18.000         315.000            3.005e+00          -6.813e-01             356.768           5.791e-01             183.866           2.424e+01     
  17.000         315.000            3.027e+00          -6.156e-01             356.877           5.683e-01             184.016           2.418e+01     
  16.000         315.000            3.047e+00          -5.536e-01             356.989           5.565e-01             184.168           2.412e+01     
  15.000         315.000            3.066e+00          -4.953e-01             357.104           5.438e-01             184.323           2.406e+01     
  14.000         315.000            3.082e+00          -4.407e-01             357.222           5.301e-01             184.481           2.401e+01     
  13.000         315.000            3.097e+00          -3.899e-01             357.343           5.156e-01             184.641           2.395e+01     
  12.000         315.000            3.109e+00          -3.428e-01             357.467           5.001e-01             184.804           2.390e+01     
  11.000         315.000            3.120e+00          -2.994e-01             357.593           4.836e-01             184.970           2.385e+01     
  10.000         315.000            3.129e+00          -2.597e-01             357.723           4.662e-01             185.139           2.380e+01     
   9.000         315.000            3.135e+00          -2.237e-01             357.855           4.479e-01             185.310           2.375e+01     
   8.000         315.000            3.140e+00          -1.914e-01             357.989           4.286e-01             185.483           2.370e+01     
   7.000         315.000            3.142e+00          -1.627e-01             358.127           4.083e-01             185.659           2.365e+01     
   6.000         315.000            3.143e+00          -1.378e-01             358.267           3.871e-01             185.838           2.360e+01     
   5.000         315.000            3.141e+00          -1.165e-01             358.409           3.649e-01             186.019           2.356e+01     
   4.000         315.000            3.137e+00          -9.897e-02             358.554           3.417e-01             186.202           2.351e+01     
   3.000         315.000            3.131e+00          -8.508e-02             358.701           3.176e-01             186.388           2.346e+01     
   2.000         315.000            3.123e+00          -7.488e-02             358.851           2.926e-01             186.576           2.342e+01     
   1.000         315.000            3.113e+00          -6.836e-02             359.002           2.665e-01             186.766           2.337e+01     
