Theta [deg.]  Phi   [deg.]  Abs(Dir.)[dBi   ]   Abs(Theta)[dBi   ]  Phase(Theta)[deg.]  Abs(Phi  )[dBi   ]  Phase(Phi  )[deg.]  Ax.Ratio[dB    ]    
------------------------------------------------------------------------------------------------------------------------------------------------------
   0.000         135.000            3.438e+00           7.899e-01             180.981           3.282e-02               2.723           3.639e+01     
   1.000         135.000            3.410e+00           7.847e-01             180.980          -2.171e-02               2.763           3.620e+01     
   2.000         135.000            3.380e+00           7.755e-01             180.982          -7.801e-02               2.804           3.601e+01     
   3.000         135.000            3.347e+00           7.622e-01             180.986          -1.361e-01               2.848           3.583e+01     
   4.000         135.000            3.310e+00           7.450e-01             180.993          -1.959e-01               2.895           3.565e+01     
   5.000         135.000            3.271e+00           7.237e-01             181.001          -2.575e-01               2.945           3.547e+01     
   6.000         135.000            3.229e+00           6.984e-01             181.012          -3.208e-01               2.997           3.529e+01     
   7.000         135.000            3.184e+00           6.691e-01             181.025          -3.859e-01               3.051           3.511e+01     
   8.000         135.000            3.136e+00           6.358e-01             181.040          -4.528e-01               3.109           3.494e+01     
   9.000         135.000            3.085e+00           5.984e-01             181.058          -5.213e-01               3.168           3.477e+01     
  10.000         135.000            3.031e+00           5.571e-01             181.077          -5.916e-01               3.231           3.459e+01     
  11.000         135.000            2.974e+00           5.118e-01             181.100          -6.637e-01               3.296           3.443e+01     
  12.000         135.000            2.914e+00           4.624e-01             181.124          -7.374e-01               3.364           3.426e+01     
  13.000         135.000            2.851e+00           4.091e-01             181.151          -8.128e-01               3.435           3.409e+01     
  14.000         135.000            2.785e+00           3.518e-01             181.180          -8.899e-01               3.509           3.393e+01     
  15.000         135.000            2.717e+00           2.905e-01             181.212          -9.687e-01               3.585           3.377e+01     
  16.000         135.000            2.645e+00           2.252e-01             181.246          -1.049e+00               3.664           3.361e+01     
  17.000         135.000            2.570e+00           1.559e-01             181.282          -1.131e+00               3.745           3.345e+01     
  18.000         135.000            2.492e+00           8.258e-02             181.321          -1.215e+00               3.829           3.329e+01     
  19.000         135.000            2.412e+00           5.308e-03             181.363          -1.300e+00               3.917           3.314e+01     
  20.000         135.000            2.328e+00          -7.595e-02             181.406          -1.387e+00               4.006           3.298e+01     
  21.000         135.000            2.242e+00          -1.612e-01             181.453          -1.475e+00               4.099           3.283e+01     
  22.000         135.000            2.152e+00          -2.504e-01             181.501          -1.565e+00               4.194           3.268e+01     
  23.000         135.000            2.060e+00          -3.437e-01             181.552          -1.656e+00               4.292           3.253e+01     
  24.000         135.000            1.964e+00          -4.409e-01             181.606          -1.749e+00               4.393           3.238e+01     
  25.000         135.000            1.866e+00          -5.421e-01             181.662          -1.843e+00               4.496           3.223e+01     
  26.000         135.000            1.765e+00          -6.473e-01             181.721          -1.939e+00               4.602           3.209e+01     
  27.000         135.000            1.661e+00          -7.566e-01             181.782          -2.036e+00               4.711           3.194e+01     
  28.000         135.000            1.554e+00          -8.698e-01             181.846          -2.134e+00               4.822           3.180e+01     
  29.000         135.000            1.445e+00          -9.871e-01             181.913          -2.233e+00               4.936           3.166e+01     
  30.000         135.000            1.332e+00          -1.108e+00             181.982          -2.334e+00               5.053           3.152e+01     
  31.000         135.000            1.217e+00          -1.234e+00             182.054          -2.436e+00               5.172           3.139e+01     
  32.000         135.000            1.099e+00          -1.363e+00             182.128          -2.539e+00               5.294           3.125e+01     
  33.000         135.000            9.781e-01          -1.497e+00             182.205          -2.643e+00               5.418           3.112e+01     
  34.000         135.000            8.545e-01          -1.634e+00             182.285          -2.748e+00               5.544           3.099e+01     
  35.000         135.000            7.283e-01          -1.776e+00             182.368          -2.855e+00               5.673           3.086e+01     
  36.000         135.000            5.994e-01          -1.922e+00             182.453          -2.962e+00               5.804           3.074e+01     
  37.000         135.000            4.679e-01          -2.072e+00             182.541          -3.070e+00               5.938           3.062e+01     
  38.000         135.000            3.338e-01          -2.226e+00             182.632          -3.179e+00               6.073           3.050e+01     
  39.000         135.000            1.970e-01          -2.385e+00             182.726          -3.289e+00               6.211           3.038e+01     
  40.000         135.000            5.776e-02          -2.548e+00             182.823          -3.399e+00               6.351           3.027e+01     
  41.000         135.000           -8.405e-02          -2.715e+00             182.923          -3.510e+00               6.493           3.016e+01     
  42.000         135.000           -2.283e-01          -2.886e+00             183.026          -3.622e+00               6.636           3.006e+01     
  43.000         135.000           -3.751e-01          -3.062e+00             183.133          -3.735e+00               6.782           2.996e+01     
  44.000         135.000           -5.242e-01          -3.242e+00             183.242          -3.848e+00               6.929           2.987e+01     
  45.000         135.000           -6.757e-01          -3.427e+00             183.355          -3.961e+00               7.077           2.978e+01     
  46.000         135.000           -8.296e-01          -3.617e+00             183.471          -4.075e+00               7.227           2.970e+01     
  47.000         135.000           -9.857e-01          -3.811e+00             183.591          -4.189e+00               7.379           2.962e+01     
  48.000         135.000           -1.144e+00          -4.010e+00             183.715          -4.303e+00               7.531           2.955e+01     
  49.000         135.000           -1.305e+00          -4.214e+00             183.842          -4.418e+00               7.685           2.949e+01     
  50.000         135.000           -1.467e+00          -4.423e+00             183.973          -4.532e+00               7.839           2.944e+01     
  51.000         135.000           -1.632e+00          -4.637e+00             184.109          -4.647e+00               7.994           2.939e+01     
  52.000         135.000           -1.799e+00          -4.857e+00             184.249          -4.762e+00               8.150           2.936e+01     
  53.000         135.000           -1.967e+00          -5.081e+00             184.393          -4.876e+00               8.306           2.933e+01     
  54.000         135.000           -2.138e+00          -5.312e+00             184.543          -4.991e+00               8.463           2.932e+01     
  55.000         135.000           -2.310e+00          -5.548e+00             184.697          -5.105e+00               8.619           2.932e+01     
  56.000         135.000           -2.484e+00          -5.790e+00             184.857          -5.218e+00               8.775           2.934e+01     
  57.000         135.000           -2.660e+00          -6.038e+00             185.023          -5.332e+00               8.931           2.937e+01     
  58.000         135.000           -2.838e+00          -6.293e+00             185.195          -5.445e+00               9.087           2.942e+01     
  59.000         135.000           -3.016e+00          -6.554e+00             185.373          -5.557e+00               9.241           2.949e+01     
  60.000         135.000           -3.197e+00          -6.822e+00             185.559          -5.668e+00               9.394           2.958e+01     
  61.000         135.000           -3.378e+00          -7.097e+00             185.753          -5.779e+00               9.547           2.970e+01     
  62.000         135.000           -3.561e+00          -7.380e+00             185.955          -5.889e+00               9.697           2.984e+01     
  63.000         135.000           -3.744e+00          -7.671e+00             186.166          -5.998e+00               9.846           3.002e+01     
  64.000         135.000           -3.929e+00          -7.970e+00             186.387          -6.106e+00               9.993           3.024e+01     
  65.000         135.000           -4.114e+00          -8.278e+00             186.620          -6.213e+00              10.138           3.050e+01     
  66.000         135.000           -4.299e+00          -8.595e+00             186.864          -6.319e+00              10.280           3.081e+01     
  67.000         135.000           -4.486e+00          -8.923e+00             187.122          -6.424e+00              10.419           3.117e+01     
  68.000         135.000           -4.672e+00          -9.260e+00             187.395          -6.527e+00              10.555           3.161e+01     
  69.000         135.000           -4.858e+00          -9.610e+00             187.685          -6.629e+00              10.688           3.213e+01     
  70.000         135.000           -5.044e+00          -9.971e+00             187.993          -6.729e+00              10.817           3.276e+01     
  71.000         135.000           -5.229e+00          -1.035e+01             188.323          -6.828e+00              10.942           3.351e+01     
  72.000         135.000           -5.414e+00          -1.073e+01             188.676          -6.924e+00              11.063           3.443e+01     
  73.000         135.000           -5.597e+00          -1.114e+01             189.056          -7.020e+00              11.179           3.558e+01     
  74.000         135.000           -5.779e+00          -1.156e+01             189.467          -7.113e+00              11.291           3.706e+01     
  75.000         135.000           -5.960e+00          -1.200e+01             189.914          -7.204e+00              11.397           3.902e+01     
  76.000         135.000           -6.138e+00          -1.245e+01             190.402          -7.293e+00              11.498           4.000e+01     
  77.000         135.000           -6.313e+00          -1.293e+01             190.938          -7.380e+00              11.593           4.000e+01     
  78.000         135.000           -6.486e+00          -1.344e+01             191.529          -7.465e+00              11.683           4.000e+01     
  79.000         135.000           -6.655e+00          -1.397e+01             192.188          -7.547e+00              11.766           4.000e+01     
  80.000         135.000           -6.820e+00          -1.453e+01             192.925          -7.627e+00              11.842           4.000e+01     
  81.000         135.000           -6.981e+00          -1.512e+01             193.757          -7.705e+00              11.912           3.870e+01     
  82.000         135.000           -7.137e+00          -1.575e+01             194.707          -7.780e+00              11.975           3.569e+01     
  83.000         135.000           -7.287e+00          -1.642e+01             195.799          -7.852e+00              12.030           3.334e+01     
  84.000         135.000           -7.431e+00          -1.714e+01             197.071          -7.922e+00              12.078           3.140e+01     
  85.000         135.000           -7.568e+00          -1.792e+01             198.570          -7.988e+00              12.119           2.975e+01     
  86.000         135.000           -7.698e+00          -1.876e+01             200.364          -8.052e+00              12.152           2.831e+01     
  87.000         135.000           -7.820e+00          -1.968e+01             202.546          -8.113e+00              12.176           2.703e+01     
  88.000         135.000           -7.933e+00          -2.068e+01             205.252          -8.171e+00              12.193           2.588e+01     
  89.000         135.000           -8.038e+00          -2.178e+01             208.681          -8.225e+00              12.201           2.484e+01     
  90.000         135.000           -8.132e+00          -2.299e+01             213.134          -8.276e+00              12.201           2.390e+01     
  91.000         135.000           -8.216e+00          -2.430e+01             219.068          -8.325e+00              12.193           2.305e+01     
  92.000         135.000           -8.290e+00          -2.570e+01             227.159          -8.369e+00              12.176           2.227e+01     
  93.000         135.000           -8.352e+00          -2.707e+01             238.278          -8.411e+00              12.150           2.156e+01     
  94.000         135.000           -8.403e+00          -2.817e+01             253.089          -8.449e+00              12.116           2.091e+01     
  95.000         135.000           -8.441e+00          -2.863e+01             270.870          -8.483e+00              12.073           2.032e+01     
  96.000         135.000           -8.468e+00          -2.824e+01             288.764          -8.514e+00              12.022           1.979e+01     
  97.000         135.000           -8.482e+00          -2.719e+01             303.814          -8.541e+00              11.962           1.931e+01     
  98.000         135.000           -8.484e+00          -2.585e+01             315.158          -8.565e+00              11.894           1.889e+01     
  99.000         135.000           -8.474e+00          -2.447e+01             323.412          -8.585e+00              11.817           1.851e+01     
 100.000         135.000           -8.452e+00          -2.316e+01             329.456          -8.601e+00              11.733           1.817e+01     
 101.000         135.000           -8.417e+00          -2.197e+01             333.979          -8.613e+00              11.641           1.789e+01     
 102.000         135.000           -8.371e+00          -2.088e+01             337.451          -8.622e+00              11.541           1.764e+01     
 103.000         135.000           -8.314e+00          -1.989e+01             340.181          -8.627e+00              11.434           1.744e+01     
 104.000         135.000           -8.246e+00          -1.899e+01             342.374          -8.628e+00              11.319           1.727e+01     
 105.000         135.000           -8.167e+00          -1.816e+01             344.169          -8.625e+00              11.197           1.714e+01     
 106.000         135.000           -8.079e+00          -1.740e+01             345.663          -8.618e+00              11.069           1.704e+01     
 107.000         135.000           -7.981e+00          -1.670e+01             346.924          -8.608e+00              10.935           1.698e+01     
 108.000         135.000           -7.875e+00          -1.604e+01             348.001          -8.594e+00              10.794           1.695e+01     
 109.000         135.000           -7.760e+00          -1.543e+01             348.931          -8.576e+00              10.648           1.694e+01     
 110.000         135.000           -7.639e+00          -1.485e+01             349.741          -8.554e+00              10.497           1.696e+01     
 111.000         135.000           -7.510e+00          -1.431e+01             350.454          -8.529e+00              10.341           1.701e+01     
 112.000         135.000           -7.375e+00          -1.380e+01             351.085          -8.499e+00              10.181           1.708e+01     
 113.000         135.000           -7.235e+00          -1.331e+01             351.648          -8.466e+00              10.016           1.717e+01     
 114.000         135.000           -7.090e+00          -1.285e+01             352.153          -8.430e+00               9.848           1.728e+01     
 115.000         135.000           -6.940e+00          -1.241e+01             352.609          -8.390e+00               9.677           1.741e+01     
 116.000         135.000           -6.786e+00          -1.199e+01             353.022          -8.346e+00               9.504           1.755e+01     
 117.000         135.000           -6.629e+00          -1.159e+01             353.399          -8.299e+00               9.328           1.771e+01     
 118.000         135.000           -6.469e+00          -1.120e+01             353.745          -8.249e+00               9.151           1.789e+01     
 119.000         135.000           -6.307e+00          -1.083e+01             354.062          -8.195e+00               8.972           1.807e+01     
 120.000         135.000           -6.142e+00          -1.048e+01             354.355          -8.138e+00               8.792           1.827e+01     
 121.000         135.000           -5.976e+00          -1.014e+01             354.628          -8.078e+00               8.612           1.848e+01     
 122.000         135.000           -5.809e+00          -9.808e+00             354.881          -8.014e+00               8.432           1.869e+01     
 123.000         135.000           -5.641e+00          -9.490e+00             355.117          -7.948e+00               8.252           1.892e+01     
 124.000         135.000           -5.472e+00          -9.183e+00             355.339          -7.879e+00               8.073           1.915e+01     
 125.000         135.000           -5.303e+00          -8.886e+00             355.548          -7.807e+00               7.895           1.939e+01     
 126.000         135.000           -5.133e+00          -8.598e+00             355.745          -7.732e+00               7.719           1.963e+01     
 127.000         135.000           -4.964e+00          -8.319e+00             355.932          -7.655e+00               7.545           1.988e+01     
 128.000         135.000           -4.795e+00          -8.049e+00             356.110          -7.575e+00               7.373           2.013e+01     
 129.000         135.000           -4.627e+00          -7.787e+00             356.280          -7.493e+00               7.204           2.039e+01     
 130.000         135.000           -4.460e+00          -7.532e+00             356.442          -7.408e+00               7.038           2.066e+01     
 131.000         135.000           -4.293e+00          -7.285e+00             356.598          -7.322e+00               6.875           2.092e+01     
 132.000         135.000           -4.128e+00          -7.045e+00             356.747          -7.233e+00               6.716           2.119e+01     
 133.000         135.000           -3.964e+00          -6.812e+00             356.892          -7.142e+00               6.560           2.146e+01     
 134.000         135.000           -3.801e+00          -6.585e+00             357.033          -7.050e+00               6.409           2.174e+01     
 135.000         135.000           -3.640e+00          -6.365e+00             357.169          -6.956e+00               6.261           2.201e+01     
 136.000         135.000           -3.480e+00          -6.151e+00             357.302          -6.860e+00               6.119           2.229e+01     
 137.000         135.000           -3.323e+00          -5.942e+00             357.432          -6.762e+00               5.980           2.257e+01     
 138.000         135.000           -3.167e+00          -5.739e+00             357.559          -6.664e+00               5.847           2.285e+01     
 139.000         135.000           -3.012e+00          -5.542e+00             357.683          -6.564e+00               5.718           2.313e+01     
 140.000         135.000           -2.860e+00          -5.350e+00             357.806          -6.462e+00               5.595           2.341e+01     
 141.000         135.000           -2.710e+00          -5.163e+00             357.927          -6.360e+00               5.476           2.370e+01     
 142.000         135.000           -2.562e+00          -4.982e+00             358.047          -6.257e+00               5.363           2.398e+01     
 143.000         135.000           -2.417e+00          -4.805e+00             358.166          -6.153e+00               5.256           2.426e+01     
 144.000         135.000           -2.273e+00          -4.634e+00             358.283          -6.048e+00               5.153           2.455e+01     
 145.000         135.000           -2.132e+00          -4.467e+00             358.400          -5.943e+00               5.056           2.483e+01     
 146.000         135.000           -1.993e+00          -4.305e+00             358.517          -5.837e+00               4.965           2.512e+01     
 147.000         135.000           -1.857e+00          -4.147e+00             358.633          -5.730e+00               4.879           2.541e+01     
 148.000         135.000           -1.723e+00          -3.994e+00             358.749          -5.624e+00               4.798           2.569e+01     
 149.000         135.000           -1.591e+00          -3.846e+00             358.865          -5.517e+00               4.723           2.598e+01     
 150.000         135.000           -1.462e+00          -3.702e+00             358.981          -5.410e+00               4.653           2.627e+01     
 151.000         135.000           -1.336e+00          -3.563e+00             359.097          -5.302e+00               4.588           2.656e+01     
 152.000         135.000           -1.212e+00          -3.428e+00             359.214          -5.195e+00               4.529           2.685e+01     
 153.000         135.000           -1.090e+00          -3.297e+00             359.331          -5.088e+00               4.475           2.713e+01     
 154.000         135.000           -9.717e-01          -3.170e+00             359.448          -4.981e+00               4.426           2.742e+01     
 155.000         135.000           -8.556e-01          -3.048e+00             359.566          -4.874e+00               4.383           2.772e+01     
 156.000         135.000           -7.422e-01          -2.930e+00             359.685          -4.768e+00               4.344           2.801e+01     
 157.000         135.000           -6.314e-01          -2.816e+00             359.805          -4.662e+00               4.310           2.830e+01     
 158.000         135.000           -5.233e-01          -2.706e+00             359.925          -4.557e+00               4.281           2.859e+01     
 159.000         135.000           -4.180e-01          -2.601e+00               0.046          -4.452e+00               4.257           2.889e+01     
 160.000         135.000           -3.153e-01          -2.499e+00               0.168          -4.348e+00               4.237           2.918e+01     
 161.000         135.000           -2.154e-01          -2.401e+00               0.291          -4.244e+00               4.222           2.948e+01     
 162.000         135.000           -1.182e-01          -2.308e+00               0.414          -4.141e+00               4.212           2.978e+01     
 163.000         135.000           -2.369e-02          -2.218e+00               0.539          -4.039e+00               4.205           3.009e+01     
 164.000         135.000            6.803e-02          -2.133e+00               0.664          -3.938e+00               4.203           3.039e+01     
 165.000         135.000            1.570e-01          -2.052e+00               0.791          -3.837e+00               4.205           3.070e+01     
 166.000         135.000            2.432e-01          -1.974e+00               0.918          -3.738e+00               4.210           3.101e+01     
 167.000         135.000            3.267e-01          -1.901e+00               1.046          -3.640e+00               4.220           3.132e+01     
 168.000         135.000            4.074e-01          -1.831e+00               1.176          -3.542e+00               4.232           3.164e+01     
 169.000         135.000            4.854e-01          -1.765e+00               1.306          -3.446e+00               4.249           3.197e+01     
 170.000         135.000            5.606e-01          -1.704e+00               1.437          -3.351e+00               4.269           3.230e+01     
 171.000         135.000            6.331e-01          -1.646e+00               1.569          -3.257e+00               4.292           3.263e+01     
 172.000         135.000            7.029e-01          -1.592e+00               1.702          -3.164e+00               4.318           3.297e+01     
 173.000         135.000            7.700e-01          -1.542e+00               1.835          -3.072e+00               4.347           3.332e+01     
 174.000         135.000            8.343e-01          -1.496e+00               1.970          -2.982e+00               4.379           3.367e+01     
 175.000         135.000            8.959e-01          -1.454e+00               2.105          -2.893e+00               4.413           3.403e+01     
 176.000         135.000            9.549e-01          -1.416e+00               2.240          -2.805e+00               4.450           3.441e+01     
 177.000         135.000            1.011e+00          -1.382e+00               2.377          -2.719e+00               4.490           3.479e+01     
 178.000         135.000            1.065e+00          -1.352e+00               2.514          -2.634e+00               4.531           3.518e+01     
 179.000         135.000            1.116e+00          -1.325e+00               2.652          -2.550e+00               4.575           3.559e+01     
 180.000         135.000            1.164e+00          -1.302e+00               2.790          -2.468e+00               4.621           3.601e+01     
 179.000         315.000            1.210e+00          -1.284e+00             182.929          -2.387e+00             184.669           3.644e+01     
 178.000         315.000            1.253e+00          -1.269e+00             183.068          -2.308e+00             184.718           3.689e+01     
 177.000         315.000            1.294e+00          -1.258e+00             183.208          -2.230e+00             184.769           3.737e+01     
 176.000         315.000            1.332e+00          -1.251e+00             183.347          -2.153e+00             184.821           3.786e+01     
 175.000         315.000            1.367e+00          -1.247e+00             183.488          -2.078e+00             184.875           3.838e+01     
 174.000         315.000            1.400e+00          -1.248e+00             183.628          -2.005e+00             184.930           3.892e+01     
 173.000         315.000            1.431e+00          -1.252e+00             183.769          -1.933e+00             184.986           3.950e+01     
 172.000         315.000            1.459e+00          -1.261e+00             183.909          -1.862e+00             185.043           4.000e+01     
 171.000         315.000            1.485e+00          -1.273e+00             184.050          -1.793e+00             185.101           4.000e+01     
 170.000         315.000            1.508e+00          -1.289e+00             184.190          -1.726e+00             185.160           4.000e+01     
 169.000         315.000            1.529e+00          -1.309e+00             184.331          -1.660e+00             185.219           4.000e+01     
 168.000         315.000            1.548e+00          -1.333e+00             184.471          -1.595e+00             185.279           4.000e+01     
 167.000         315.000            1.565e+00          -1.360e+00             184.611          -1.532e+00             185.339           4.000e+01     
 166.000         315.000            1.579e+00          -1.392e+00             184.751          -1.471e+00             185.400           4.000e+01     
 165.000         315.000            1.591e+00          -1.427e+00             184.890          -1.411e+00             185.461           4.000e+01     
 164.000         315.000            1.601e+00          -1.467e+00             185.029          -1.352e+00             185.522           4.000e+01     
 163.000         315.000            1.609e+00          -1.510e+00             185.168          -1.295e+00             185.582           4.000e+01     
 162.000         315.000            1.615e+00          -1.557e+00             185.306          -1.239e+00             185.643           4.000e+01     
 161.000         315.000            1.619e+00          -1.608e+00             185.443          -1.185e+00             185.703           4.000e+01     
 160.000         315.000            1.621e+00          -1.663e+00             185.579          -1.132e+00             185.764           4.000e+01     
 159.000         315.000            1.620e+00          -1.722e+00             185.715          -1.081e+00             185.823           4.000e+01     
 158.000         315.000            1.618e+00          -1.785e+00             185.850          -1.031e+00             185.883           4.000e+01     
 157.000         315.000            1.615e+00          -1.852e+00             185.984          -9.827e-01             185.941           4.000e+01     
 156.000         315.000            1.609e+00          -1.923e+00             186.117          -9.356e-01             185.999           4.000e+01     
 155.000         315.000            1.602e+00          -1.998e+00             186.248          -8.899e-01             186.057           4.000e+01     
 154.000         315.000            1.593e+00          -2.077e+00             186.379          -8.456e-01             186.113           4.000e+01     
 153.000         315.000            1.582e+00          -2.160e+00             186.509          -8.026e-01             186.169           4.000e+01     
 152.000         315.000            1.570e+00          -2.247e+00             186.637          -7.609e-01             186.223           4.000e+01     
 151.000         315.000            1.556e+00          -2.338e+00             186.764          -7.205e-01             186.277           4.000e+01     
 150.000         315.000            1.541e+00          -2.433e+00             186.890          -6.814e-01             186.329           4.000e+01     
 149.000         315.000            1.524e+00          -2.533e+00             187.014          -6.436e-01             186.380           4.000e+01     
 148.000         315.000            1.506e+00          -2.636e+00             187.137          -6.069e-01             186.430           4.000e+01     
 147.000         315.000            1.487e+00          -2.744e+00             187.258          -5.715e-01             186.479           4.000e+01     
 146.000         315.000            1.466e+00          -2.856e+00             187.378          -5.373e-01             186.526           4.000e+01     
 145.000         315.000            1.445e+00          -2.973e+00             187.496          -5.043e-01             186.572           4.000e+01     
 144.000         315.000            1.422e+00          -3.094e+00             187.613          -4.724e-01             186.616           4.000e+01     
 143.000         315.000            1.398e+00          -3.220e+00             187.728          -4.416e-01             186.659           4.000e+01     
 142.000         315.000            1.373e+00          -3.350e+00             187.841          -4.119e-01             186.700           4.000e+01     
 141.000         315.000            1.348e+00          -3.484e+00             187.952          -3.833e-01             186.739           4.000e+01     
 140.000         315.000            1.321e+00          -3.624e+00             188.062          -3.556e-01             186.777           3.960e+01     
 139.000         315.000            1.294e+00          -3.768e+00             188.170          -3.290e-01             186.813           3.919e+01     
 138.000         315.000            1.266e+00          -3.917e+00             188.276          -3.034e-01             186.847           3.881e+01     
 137.000         315.000            1.237e+00          -4.071e+00             188.380          -2.787e-01             186.879           3.846e+01     
 136.000         315.000            1.207e+00          -4.231e+00             188.483          -2.550e-01             186.910           3.813e+01     
 135.000         315.000            1.178e+00          -4.395e+00             188.583          -2.321e-01             186.938           3.782e+01     
 134.000         315.000            1.147e+00          -4.565e+00             188.682          -2.101e-01             186.965           3.753e+01     
 133.000         315.000            1.116e+00          -4.740e+00             188.779          -1.889e-01             186.989           3.727e+01     
 132.000         315.000            1.085e+00          -4.921e+00             188.874          -1.686e-01             187.012           3.702e+01     
 131.000         315.000            1.054e+00          -5.108e+00             188.968          -1.490e-01             187.032           3.679e+01     
 130.000         315.000            1.023e+00          -5.301e+00             189.060          -1.301e-01             187.051           3.658e+01     
 129.000         315.000            9.911e-01          -5.500e+00             189.150          -1.120e-01             187.067           3.638e+01     
 128.000         315.000            9.595e-01          -5.706e+00             189.239          -9.450e-02             187.082           3.620e+01     
 127.000         315.000            9.279e-01          -5.919e+00             189.327          -7.768e-02             187.094           3.604e+01     
 126.000         315.000            8.964e-01          -6.138e+00             189.413          -6.148e-02             187.104           3.589e+01     
 125.000         315.000            8.651e-01          -6.365e+00             189.498          -4.587e-02             187.112           3.575e+01     
 124.000         315.000            8.340e-01          -6.600e+00             189.582          -3.081e-02             187.118           3.563e+01     
 123.000         315.000            8.032e-01          -6.843e+00             189.665          -1.628e-02             187.122           3.552e+01     
 122.000         315.000            7.727e-01          -7.094e+00             189.748          -2.252e-03             187.123           3.542e+01     
 121.000         315.000            7.427e-01          -7.354e+00             189.830           1.131e-02             187.123           3.534e+01     
 120.000         315.000            7.132e-01          -7.624e+00             189.912           2.444e-02             187.120           3.527e+01     
 119.000         315.000            6.843e-01          -7.903e+00             189.994           3.716e-02             187.115           3.521e+01     
 118.000         315.000            6.560e-01          -8.194e+00             190.077           4.950e-02             187.108           3.517e+01     
 117.000         315.000            6.283e-01          -8.495e+00             190.160           6.150e-02             187.099           3.514e+01     
 116.000         315.000            6.015e-01          -8.809e+00             190.245           7.317e-02             187.088           3.512e+01     
 115.000         315.000            5.754e-01          -9.136e+00             190.332           8.454e-02             187.074           3.511e+01     
 114.000         315.000            5.503e-01          -9.477e+00             190.422           9.566e-02             187.059           3.511e+01     
 113.000         315.000            5.260e-01          -9.832e+00             190.515           1.065e-01             187.041           3.513e+01     
 112.000         315.000            5.028e-01          -1.020e+01             190.613           1.172e-01             187.022           3.515e+01     
 111.000         315.000            4.807e-01          -1.059e+01             190.716           1.277e-01             187.000           3.519e+01     
 110.000         315.000            4.596e-01          -1.100e+01             190.826           1.380e-01             186.976           3.524e+01     
 109.000         315.000            4.397e-01          -1.144e+01             190.945           1.482e-01             186.950           3.531e+01     
 108.000         315.000            4.211e-01          -1.189e+01             191.074           1.582e-01             186.923           3.538e+01     
 107.000         315.000            4.037e-01          -1.237e+01             191.215           1.682e-01             186.893           3.546e+01     
 106.000         315.000            3.876e-01          -1.288e+01             191.373           1.781e-01             186.861           3.556e+01     
 105.000         315.000            3.729e-01          -1.343e+01             191.550           1.880e-01             186.828           3.567e+01     
 104.000         315.000            3.597e-01          -1.401e+01             191.752           1.978e-01             186.792           3.579e+01     
 103.000         315.000            3.479e-01          -1.463e+01             191.984           2.077e-01             186.755           3.592e+01     
 102.000         315.000            3.376e-01          -1.531e+01             192.256           2.175e-01             186.716           3.607e+01     
 101.000         315.000            3.288e-01          -1.604e+01             192.579           2.274e-01             186.676           3.622e+01     
 100.000         315.000            3.216e-01          -1.684e+01             192.968           2.373e-01             186.633           3.639e+01     
  99.000         315.000            3.160e-01          -1.773e+01             193.446           2.474e-01             186.589           3.657e+01     
  98.000         315.000            3.121e-01          -1.871e+01             194.046           2.574e-01             186.543           3.676e+01     
  97.000         315.000            3.099e-01          -1.983e+01             194.821           2.676e-01             186.496           3.697e+01     
  96.000         315.000            3.093e-01          -2.111e+01             195.857           2.779e-01             186.447           3.718e+01     
  95.000         315.000            3.105e-01          -2.261e+01             197.302           2.883e-01             186.397           3.741e+01     
  94.000         315.000            3.135e-01          -2.443e+01             199.445           2.989e-01             186.345           3.765e+01     
  93.000         315.000            3.182e-01          -2.670e+01             202.914           3.096e-01             186.292           3.790e+01     
  92.000         315.000            3.247e-01          -2.971e+01             209.360           3.204e-01             186.237           3.816e+01     
  91.000         315.000            3.331e-01          -3.394e+01             224.452           3.314e-01             186.181           3.843e+01     
  90.000         315.000            3.432e-01          -3.832e+01             269.277           3.426e-01             186.124           3.872e+01     
  89.000         315.000            3.552e-01          -3.519e+01             323.995           3.540e-01             186.066           3.902e+01     
  88.000         315.000            3.690e-01          -3.058e+01             343.591           3.655e-01             186.007           3.933e+01     
  87.000         315.000            3.846e-01          -2.729e+01             351.341           3.772e-01             185.947           3.965e+01     
  86.000         315.000            4.021e-01          -2.484e+01             355.311           3.891e-01             185.885           3.998e+01     
  85.000         315.000            4.214e-01          -2.290e+01             357.684           4.011e-01             185.823           4.000e+01     
  84.000         315.000            4.425e-01          -2.131e+01             359.243           4.134e-01             185.760           4.000e+01     
  83.000         315.000            4.654e-01          -1.995e+01               0.334           4.258e-01             185.696           4.000e+01     
  82.000         315.000            4.902e-01          -1.877e+01               1.130           4.384e-01             185.631           4.000e+01     
  81.000         315.000            5.167e-01          -1.773e+01               1.730           4.512e-01             185.566           4.000e+01     
  80.000         315.000            5.450e-01          -1.680e+01               2.193           4.641e-01             185.499           4.000e+01     
  79.000         315.000            5.750e-01          -1.595e+01               2.555           4.772e-01             185.433           4.000e+01     
  78.000         315.000            6.068e-01          -1.517e+01               2.841           4.905e-01             185.366           4.000e+01     
  77.000         315.000            6.402e-01          -1.446e+01               3.068           5.039e-01             185.298           4.000e+01     
  76.000         315.000            6.753e-01          -1.380e+01               3.249           5.174e-01             185.230           4.000e+01     
  75.000         315.000            7.121e-01          -1.318e+01               3.394           5.310e-01             185.161           4.000e+01     
  74.000         315.000            7.504e-01          -1.260e+01               3.508           5.448e-01             185.093           4.000e+01     
  73.000         315.000            7.903e-01          -1.205e+01               3.597           5.586e-01             185.024           4.000e+01     
  72.000         315.000            8.317e-01          -1.154e+01               3.666           5.726e-01             184.955           4.000e+01     
  71.000         315.000            8.745e-01          -1.105e+01               3.716           5.866e-01             184.885           4.000e+01     
  70.000         315.000            9.188e-01          -1.059e+01               3.752           6.006e-01             184.816           4.000e+01     
  69.000         315.000            9.645e-01          -1.015e+01               3.775           6.147e-01             184.747           4.000e+01     
  68.000         315.000            1.011e+00          -9.729e+00               3.787           6.288e-01             184.678           4.000e+01     
  67.000         315.000            1.060e+00          -9.326e+00               3.789           6.429e-01             184.609           4.000e+01     
  66.000         315.000            1.109e+00          -8.940e+00               3.783           6.569e-01             184.540           4.000e+01     
  65.000         315.000            1.160e+00          -8.570e+00               3.769           6.709e-01             184.471           4.000e+01     
  64.000         315.000            1.211e+00          -8.214e+00               3.749           6.848e-01             184.403           4.000e+01     
  63.000         315.000            1.264e+00          -7.871e+00               3.723           6.987e-01             184.335           4.000e+01     
  62.000         315.000            1.318e+00          -7.541e+00               3.692           7.123e-01             184.268           4.000e+01     
  61.000         315.000            1.372e+00          -7.222e+00               3.656           7.259e-01             184.201           4.000e+01     
  60.000         315.000            1.427e+00          -6.914e+00               3.617           7.392e-01             184.134           4.000e+01     
  59.000         315.000            1.483e+00          -6.616e+00               3.573           7.524e-01             184.068           4.000e+01     
  58.000         315.000            1.540e+00          -6.328e+00               3.527           7.653e-01             184.003           4.000e+01     
  57.000         315.000            1.597e+00          -6.049e+00               3.478           7.780e-01             183.939           4.000e+01     
  56.000         315.000            1.655e+00          -5.779e+00               3.427           7.904e-01             183.875           4.000e+01     
  55.000         315.000            1.713e+00          -5.516e+00               3.374           8.024e-01             183.812           4.000e+01     
  54.000         315.000            1.772e+00          -5.262e+00               3.318           8.141e-01             183.750           4.000e+01     
  53.000         315.000            1.831e+00          -5.016e+00               3.262           8.254e-01             183.689           4.000e+01     
  52.000         315.000            1.890e+00          -4.776e+00               3.203           8.363e-01             183.629           4.000e+01     
  51.000         315.000            1.949e+00          -4.543e+00               3.144           8.468e-01             183.569           4.000e+01     
  50.000         315.000            2.009e+00          -4.317e+00               3.084           8.568e-01             183.511           4.000e+01     
  49.000         315.000            2.068e+00          -4.098e+00               3.022           8.662e-01             183.454           4.000e+01     
  48.000         315.000            2.127e+00          -3.885e+00               2.961           8.751e-01             183.398           4.000e+01     
  47.000         315.000            2.186e+00          -3.677e+00               2.898           8.835e-01             183.343           4.000e+01     
  46.000         315.000            2.245e+00          -3.476e+00               2.836           8.912e-01             183.290           4.000e+01     
  45.000         315.000            2.304e+00          -3.280e+00               2.773           8.983e-01             183.237           4.000e+01     
  44.000         315.000            2.362e+00          -3.090e+00               2.710           9.047e-01             183.186           4.000e+01     
  43.000         315.000            2.419e+00          -2.905e+00               2.647           9.103e-01             183.137           4.000e+01     
  42.000         315.000            2.476e+00          -2.726e+00               2.585           9.153e-01             183.089           4.000e+01     
  41.000         315.000            2.532e+00          -2.551e+00               2.522           9.194e-01             183.042           4.000e+01     
  40.000         315.000            2.588e+00          -2.382e+00               2.460           9.227e-01             182.996           4.000e+01     
  39.000         315.000            2.642e+00          -2.218e+00               2.399           9.252e-01             182.952           4.000e+01     
  38.000         315.000            2.696e+00          -2.058e+00               2.337           9.268e-01             182.910           4.000e+01     
  37.000         315.000            2.749e+00          -1.904e+00               2.277           9.274e-01             182.869           4.000e+01     
  36.000         315.000            2.801e+00          -1.754e+00               2.217           9.272e-01             182.830           4.000e+01     
  35.000         315.000            2.851e+00          -1.608e+00               2.158           9.259e-01             182.792           4.000e+01     
  34.000         315.000            2.901e+00          -1.468e+00               2.100           9.236e-01             182.756           4.000e+01     
  33.000         315.000            2.949e+00          -1.331e+00               2.043           9.202e-01             182.722           4.000e+01     
  32.000         315.000            2.996e+00          -1.200e+00               1.987           9.157e-01             182.690           4.000e+01     
  31.000         315.000            3.041e+00          -1.073e+00               1.932           9.102e-01             182.659           4.000e+01     
  30.000         315.000            3.085e+00          -9.497e-01               1.877           9.034e-01             182.630           4.000e+01     
  29.000         315.000            3.128e+00          -8.313e-01               1.825           8.955e-01             182.603           4.000e+01     
  28.000         315.000            3.169e+00          -7.172e-01               1.773           8.864e-01             182.578           4.000e+01     
  27.000         315.000            3.208e+00          -6.073e-01               1.722           8.760e-01             182.554           4.000e+01     
  26.000         315.000            3.245e+00          -5.018e-01               1.673           8.644e-01             182.533           4.000e+01     
  25.000         315.000            3.281e+00          -4.005e-01               1.625           8.514e-01             182.513           4.000e+01     
  24.000         315.000            3.314e+00          -3.035e-01               1.579           8.371e-01             182.495           4.000e+01     
  23.000         315.000            3.346e+00          -2.106e-01               1.534           8.214e-01             182.480           4.000e+01     
  22.000         315.000            3.376e+00          -1.220e-01               1.491           8.044e-01             182.466           4.000e+01     
  21.000         315.000            3.404e+00          -3.750e-02               1.449           7.859e-01             182.455           4.000e+01     
  20.000         315.000            3.430e+00           4.282e-02               1.408           7.660e-01             182.445           4.000e+01     
  19.000         315.000            3.453e+00           1.190e-01               1.370           7.446e-01             182.438           4.000e+01     
  18.000         315.000            3.475e+00           1.910e-01               1.332           7.218e-01             182.432           4.000e+01     
  17.000         315.000            3.494e+00           2.590e-01               1.297           6.974e-01             182.429           4.000e+01     
  16.000         315.000            3.511e+00           3.228e-01               1.263           6.714e-01             182.428           3.987e+01     
  15.000         315.000            3.525e+00           3.825e-01               1.231           6.439e-01             182.429           3.962e+01     
  14.000         315.000            3.538e+00           4.381e-01               1.201           6.149e-01             182.432           3.938e+01     
  13.000         315.000            3.547e+00           4.896e-01               1.173           5.842e-01             182.438           3.914e+01     
  12.000         315.000            3.555e+00           5.371e-01               1.146           5.519e-01             182.446           3.891e+01     
  11.000         315.000            3.560e+00           5.805e-01               1.122           5.180e-01             182.456           3.868e+01     
  10.000         315.000            3.562e+00           6.198e-01               1.099           4.824e-01             182.468           3.845e+01     
   9.000         315.000            3.562e+00           6.550e-01               1.078           4.451e-01             182.483           3.823e+01     
   8.000         315.000            3.559e+00           6.862e-01               1.059           4.062e-01             182.500           3.801e+01     
   7.000         315.000            3.553e+00           7.133e-01               1.042           3.656e-01             182.520           3.780e+01     
   6.000         315.000            3.545e+00           7.364e-01               1.027           3.232e-01             182.541           3.759e+01     
   5.000         315.000            3.534e+00           7.554e-01               1.014           2.792e-01             182.566           3.738e+01     
   4.000         315.000            3.520e+00           7.704e-01               1.003           2.334e-01             182.592           3.718e+01     
   3.000         315.000            3.504e+00           7.813e-01               0.995           1.859e-01             182.621           3.698e+01     
   2.000         315.000            3.485e+00           7.882e-01               0.988           1.366e-01             182.653           3.678e+01     
   1.000         315.000            3.463e+00           7.911e-01               0.983           8.556e-02             182.687           3.658e+01     
